Typical Measured Spectrum of Semrock NF03-642E Optical Filter
For wavelengths between 320 and 1120 nm, values near or below 3e-7 (Optical Density 6.5) are measurement noise limited.

For wavelengths < 320 nm and > 1120 nm, values near or below 3e-6 (Optical Density 5.5) are measurement noise limited. 

Data format:  Wavelength (nm) <tab> Transmission (0 to 1)

340.0	0.01006
340.2	0.01076
340.4	0.0104
340.6	0.0106
340.8	0.01071
341.0	0.01129
341.2	0.01177
341.4	0.01175
341.6	0.01256
341.8	0.0133
342.0	0.01403
342.2	0.01493
342.4	0.01666
342.6	0.02344
342.8	0.14852
343.0	0.47031
343.2	0.62374
343.4	0.6756
343.6	0.69859
343.8	0.72147
344.0	0.73596
344.2	0.73858
344.4	0.74808
344.6	0.75434
344.8	0.76677
345.0	0.77006
345.2	0.77338
345.4	0.78239
345.6	0.78833
345.8	0.79767
346.0	0.79855
346.2	0.80891
346.4	0.80585
346.6	0.81226
346.8	0.80995
347.0	0.81502
347.2	0.81422
347.4	0.81974
347.6	0.82152
347.8	0.82307
348.0	0.83153
348.2	0.83001
348.4	0.83602
348.6	0.83688
348.8	0.83578
349.0	0.84295
349.2	0.8358
349.4	0.83691
349.6	0.84227
349.8	0.84048
350.0	0.84591
350.2	0.84628
350.4	0.84686
350.6	0.85353
350.8	0.85556
351.0	0.85789
351.2	0.86442
351.4	0.85905
351.6	0.86484
351.8	0.87092
352.0	0.86219
352.2	0.86338
352.4	0.86838
352.6	0.8616
352.8	0.86262
353.0	0.86527
353.2	0.86403
353.4	0.86485
353.6	0.87456
353.8	0.86869
354.0	0.86799
354.2	0.87958
354.4	0.87918
354.6	0.87547
354.8	0.88296
355.0	0.88392
355.2	0.87894
355.4	0.88053
355.6	0.88511
355.8	0.87812
356.0	0.87801
356.2	0.88027
356.4	0.88173
356.6	0.88024
356.8	0.88368
357.0	0.88888
357.2	0.88914
357.4	0.88648
357.6	0.89653
357.8	0.90033
358.0	0.89043
358.2	0.89545
358.4	0.9045
358.6	0.89883
358.8	0.89567
359.0	0.89555
359.2	0.90388
359.4	0.89503
359.6	0.89042
359.8	0.89566
360.0	0.89913
360.2	0.89497
360.4	0.89367
360.6	0.89912
360.8	0.90783
361.0	0.89743
361.2	0.89691
361.4	0.90958
361.6	0.90802
361.8	0.90085
362.0	0.90533
362.2	0.90867
362.4	0.91085
362.6	0.9004
362.8	0.90071
363.0	0.90999
363.2	0.90841
363.4	0.89883
363.6	0.9043
363.8	0.90561
364.0	0.91003
364.2	0.90516
364.4	0.90304
364.6	0.91117
364.8	0.91737
365.0	0.91483
365.2	0.91574
365.4	0.92025
365.6	0.92495
365.8	0.91907
366.0	0.91654
366.2	0.9211
366.4	0.92322
366.6	0.91685
366.8	0.91072
367.0	0.91209
367.2	0.91824
367.4	0.91849
367.6	0.91331
367.8	0.914
368.0	0.91897
368.2	0.92437
368.4	0.92115
368.6	0.91768
368.8	0.92197
369.0	0.92905
369.2	0.93021
369.4	0.92799
369.6	0.92508
369.8	0.92961
370.0	0.93488
370.2	0.93091
370.4	0.92104
370.6	0.92395
370.8	0.92891
371.0	0.927
371.2	0.92345
371.4	0.91648
371.6	0.92069
371.8	0.92642
372.0	0.92611
372.2	0.9216
372.4	0.9195
372.6	0.92648
372.8	0.93269
373.0	0.92904
373.2	0.92154
373.4	0.92878
373.6	0.93486
373.8	0.93773
374.0	0.93317
374.2	0.93112
374.4	0.9322
374.6	0.93797
374.8	0.93843
375.0	0.92803
375.2	0.92239
375.4	0.92741
375.6	0.93179
375.8	0.93138
376.0	0.9264
376.2	0.92083
376.4	0.92673
376.6	0.9329
376.8	0.93515
377.0	0.93099
377.2	0.9277
377.4	0.9305
377.6	0.9384
377.8	0.94118
378.0	0.93824
378.2	0.93378
378.4	0.93687
378.6	0.94357
378.8	0.94337
379.0	0.93832
379.2	0.93384
379.4	0.93379
379.6	0.93784
379.8	0.94034
380.0	0.93646
380.2	0.93002
380.4	0.92966
380.6	0.93453
380.8	0.93829
381.0	0.93511
381.2	0.93044
381.4	0.92469
381.6	0.93264
381.8	0.93991
382.0	0.93854
382.2	0.93208
382.4	0.93134
382.6	0.93297
382.8	0.94155
383.0	0.94472
383.2	0.94333
383.4	0.93613
383.6	0.93652
383.8	0.94136
384.0	0.94472
384.2	0.94331
384.4	0.93915
384.6	0.93534
384.8	0.93579
385.0	0.94244
385.2	0.94344
385.4	0.93921
385.6	0.92932
385.8	0.93005
386.0	0.93554
386.2	0.94085
386.4	0.94037
386.6	0.93764
386.8	0.93122
387.0	0.9351
387.2	0.94307
387.4	0.95027
387.6	0.95048
387.8	0.94642
388.0	0.9441
388.2	0.94752
388.4	0.95295
388.6	0.95465
388.8	0.94873
389.0	0.94225
389.2	0.9423
389.4	0.94546
389.6	0.95115
389.8	0.9516
390.0	0.93951
390.2	0.93266
390.4	0.93161
390.6	0.94037
390.8	0.94367
391.0	0.94444
391.2	0.93934
391.4	0.93327
391.6	0.93473
391.8	0.94349
392.0	0.94542
392.2	0.94901
392.4	0.94718
392.6	0.9433
392.8	0.94106
393.0	0.9458
393.2	0.95241
393.4	0.95806
393.6	0.95427
393.8	0.94613
394.0	0.94423
394.2	0.94744
394.4	0.95554
394.6	0.95637
394.8	0.9569
395.0	0.94731
395.2	0.9469
395.4	0.94876
395.6	0.95294
395.8	0.95492
396.0	0.94968
396.2	0.94454
396.4	0.94226
396.6	0.94293
396.8	0.94871
397.0	0.95047
397.2	0.94295
397.4	0.93539
397.6	0.93322
397.8	0.93966
398.0	0.94893
398.2	0.9553
398.4	0.95653
398.6	0.94992
398.8	0.94574
399.0	0.94671
399.2	0.953
399.4	0.96177
399.6	0.96557
399.8	0.96185
400.0	0.95385
400.2	0.94957
400.4	0.95304
400.6	0.9584
400.8	0.96302
401.0	0.95839
401.2	0.95295
401.4	0.94825
401.6	0.94728
401.8	0.95394
402.0	0.95618
402.2	0.95613
402.4	0.95159
402.6	0.94391
402.8	0.9449
403.0	0.95003
403.2	0.95759
403.4	0.95836
403.6	0.95497
403.8	0.95063
404.0	0.94797
404.2	0.95307
404.4	0.95801
404.6	0.96077
404.8	0.9614
405.0	0.9554
405.2	0.94889
405.4	0.94953
405.6	0.95725
405.8	0.96365
406.0	0.9695
406.2	0.96456
406.4	0.95494
406.6	0.9461
406.8	0.94707
407.0	0.94884
407.2	0.95563
407.4	0.9623
407.6	0.95827
407.8	0.95096
408.0	0.94407
408.2	0.94113
408.4	0.95062
408.6	0.95801
408.8	0.96244
409.0	0.9625
409.2	0.95704
409.4	0.95129
409.6	0.95343
409.8	0.95826
410.0	0.96341
410.2	0.9646
410.4	0.95979
410.6	0.95855
410.8	0.9557
411.0	0.95946
411.2	0.96475
411.4	0.96862
411.6	0.96535
411.8	0.9591
412.0	0.95293
412.2	0.94835
412.4	0.95182
412.6	0.95864
412.8	0.96308
413.0	0.96298
413.2	0.95717
413.4	0.9502
413.6	0.94559
413.8	0.9486
414.0	0.95171
414.2	0.95632
414.4	0.95985
414.6	0.95755
414.8	0.9524
415.0	0.94973
415.2	0.95284
415.4	0.95684
415.6	0.96365
415.8	0.96661
416.0	0.96645
416.2	0.96289
416.4	0.95912
416.6	0.96034
416.8	0.96306
417.0	0.96758
417.2	0.96797
417.4	0.96568
417.6	0.95909
417.8	0.9569
418.0	0.95852
418.2	0.96389
418.4	0.97102
418.6	0.97001
418.8	0.96459
419.0	0.95926
419.2	0.955
419.4	0.95495
419.6	0.9562
419.8	0.96129
420.0	0.96403
420.2	0.96381
420.4	0.9587
420.6	0.95156
420.8	0.94818
421.0	0.94794
421.2	0.95485
421.4	0.95931
421.6	0.96287
421.8	0.96122
422.0	0.95627
422.2	0.95562
422.4	0.95479
422.6	0.95836
422.8	0.96438
423.0	0.96935
423.2	0.96744
423.4	0.9635
423.6	0.95897
423.8	0.95597
424.0	0.95799
424.2	0.96416
424.4	0.9674
424.6	0.96985
424.8	0.9667
425.0	0.96091
425.2	0.95505
425.4	0.95319
425.6	0.95296
425.8	0.95895
426.0	0.96359
426.2	0.96312
426.4	0.95968
426.6	0.95393
426.8	0.94909
427.0	0.94763
427.2	0.95135
427.4	0.95567
427.6	0.95769
427.8	0.95666
428.0	0.95585
428.2	0.95011
428.4	0.9454
428.6	0.94852
428.8	0.95235
429.0	0.9592
429.2	0.96272
429.4	0.96296
429.6	0.95926
429.8	0.95595
430.0	0.95427
430.2	0.95809
430.4	0.96171
430.6	0.96711
430.8	0.96781
431.0	0.96591
431.2	0.95959
431.4	0.95407
431.6	0.95194
431.8	0.95325
432.0	0.9592
432.2	0.9623
432.4	0.96508
432.6	0.96437
432.8	0.95927
433.0	0.95539
433.2	0.95204
433.4	0.95236
433.6	0.95547
433.8	0.95937
434.0	0.96136
434.2	0.96057
434.4	0.957
434.6	0.95198
434.8	0.95003
435.0	0.95009
435.2	0.9554
435.4	0.96155
435.6	0.96307
435.8	0.96226
436.0	0.95977
436.2	0.9543
436.4	0.95253
436.6	0.95196
436.8	0.95699
437.0	0.96135
437.2	0.96206
437.4	0.96306
437.6	0.95975
437.8	0.95864
438.0	0.95254
438.2	0.95567
438.4	0.95823
438.6	0.96407
438.8	0.96645
439.0	0.96869
439.2	0.96417
439.4	0.958
439.6	0.95198
439.8	0.95092
440.0	0.95463
440.2	0.95545
440.4	0.96133
440.6	0.96382
440.8	0.96473
441.0	0.96092
441.2	0.95124
441.4	0.94763
441.6	0.94884
441.8	0.95193
442.0	0.95523
442.2	0.95931
442.4	0.9618
442.6	0.96182
442.8	0.95669
443.0	0.95365
443.2	0.95394
443.4	0.95539
443.6	0.95732
443.8	0.96406
444.0	0.96774
444.2	0.96575
444.4	0.9642
444.6	0.95702
444.8	0.95612
445.0	0.95546
445.2	0.95728
445.4	0.96422
445.6	0.96531
445.8	0.96879
446.0	0.96667
446.2	0.9634
446.4	0.95657
446.6	0.9549
446.8	0.95398
447.0	0.95552
447.2	0.95989
447.4	0.96213
447.6	0.96372
447.8	0.9626
448.0	0.95855
448.2	0.95357
448.4	0.95214
448.6	0.95324
448.8	0.9568
449.0	0.96276
449.2	0.962
449.4	0.96313
449.6	0.95986
449.8	0.95596
450.0	0.95354
450.2	0.95014
450.4	0.95094
450.6	0.95288
450.8	0.95971
451.0	0.96302
451.2	0.9629
451.4	0.96393
451.6	0.96079
451.8	0.95447
452.0	0.9536
452.2	0.95561
452.4	0.95936
452.6	0.96254
452.8	0.96609
453.0	0.96792
453.2	0.96635
453.4	0.96512
453.6	0.96081
453.8	0.95933
454.0	0.96075
454.2	0.96132
454.4	0.96451
454.6	0.96701
454.8	0.96814
455.0	0.9643
455.2	0.961
455.4	0.95675
455.6	0.95319
455.8	0.95299
456.0	0.95806
456.2	0.95987
456.4	0.96021
456.6	0.96309
456.8	0.96202
457.0	0.95625
457.2	0.95375
457.4	0.94892
457.6	0.9494
457.8	0.95127
458.0	0.95444
458.2	0.95904
458.4	0.96291
458.6	0.96201
458.8	0.96113
459.0	0.95785
459.2	0.95315
459.4	0.95397
459.6	0.95616
459.8	0.96143
460.0	0.96501
460.2	0.96963
460.4	0.96969
460.6	0.96614
460.8	0.96319
461.0	0.95919
461.2	0.95695
461.4	0.95695
461.6	0.95884
461.8	0.96195
462.0	0.96449
462.2	0.96527
462.4	0.96447
462.6	0.96425
462.8	0.95881
463.0	0.95538
463.2	0.95381
463.4	0.95389
463.6	0.95699
463.8	0.96117
464.0	0.96099
464.2	0.96122
464.4	0.95805
464.6	0.95531
464.8	0.94971
465.0	0.94834
465.2	0.94915
465.4	0.95266
465.6	0.9556
465.8	0.95856
466.0	0.9622
466.2	0.96005
466.4	0.9593
466.6	0.95763
466.8	0.95197
467.0	0.95228
467.2	0.95235
467.4	0.95729
467.6	0.96245
467.8	0.9633
468.0	0.96776
468.2	0.96607
468.4	0.96594
468.6	0.9628
468.8	0.95946
469.0	0.95894
469.2	0.95856
469.4	0.96012
469.6	0.96489
469.8	0.96791
470.0	0.96735
470.2	0.96606
470.4	0.96379
470.6	0.96017
470.8	0.95557
471.0	0.95412
471.2	0.95481
471.4	0.95895
471.6	0.96224
471.8	0.96704
472.0	0.96891
472.2	0.96887
472.4	0.96746
472.6	0.96306
472.8	0.95908
473.0	0.9572
473.2	0.95607
473.4	0.95712
473.6	0.95882
473.8	0.96108
474.0	0.96351
474.2	0.96491
474.4	0.96179
474.6	0.95677
474.8	0.95301
475.0	0.95195
475.2	0.95248
475.4	0.95395
475.6	0.95598
475.8	0.96245
476.0	0.96534
476.2	0.96543
476.4	0.9631
476.6	0.962
476.8	0.95849
477.0	0.9575
477.2	0.95908
477.4	0.95938
477.6	0.96307
477.8	0.96592
478.0	0.97128
478.2	0.97425
478.4	0.97136
478.6	0.97037
478.8	0.96392
479.0	0.96095
479.2	0.95904
479.4	0.95994
479.6	0.96373
479.8	0.96751
480.0	0.97049
480.2	0.97031
480.4	0.97046
480.6	0.96719
480.8	0.96395
481.0	0.95941
481.2	0.95571
481.4	0.95504
481.6	0.95645
481.8	0.95745
482.0	0.96001
482.2	0.96199
482.4	0.96317
482.6	0.96198
482.8	0.95819
483.0	0.95454
483.2	0.94996
483.4	0.94786
483.6	0.94933
483.8	0.95127
484.0	0.95386
484.2	0.95894
484.4	0.96326
484.6	0.96487
484.8	0.96373
485.0	0.96336
485.2	0.96027
485.4	0.95668
485.6	0.95399
485.8	0.95678
486.0	0.95838
486.2	0.96169
486.4	0.96427
486.6	0.9657
486.8	0.9665
487.0	0.9661
487.2	0.96418
487.4	0.96344
487.6	0.9599
487.8	0.96149
488.0	0.96079
488.2	0.9641
488.4	0.9675
488.6	0.96779
488.8	0.96848
489.0	0.96665
489.2	0.96626
489.4	0.96149
489.6	0.95679
489.8	0.9553
490.0	0.95262
490.2	0.95298
490.4	0.95447
490.6	0.95879
490.8	0.96202
491.0	0.96322
491.2	0.96476
491.4	0.96104
491.6	0.96156
491.8	0.95772
492.0	0.95468
492.2	0.95349
492.4	0.95397
492.6	0.95815
492.8	0.95885
493.0	0.96409
493.2	0.96445
493.4	0.96328
493.6	0.96191
493.8	0.96053
494.0	0.95778
494.2	0.95442
494.4	0.95308
494.6	0.95305
494.8	0.95759
495.0	0.9603
495.2	0.96193
495.4	0.96325
495.6	0.96472
495.8	0.96379
496.0	0.96185
496.2	0.958
496.4	0.9555
496.6	0.95645
496.8	0.95835
497.0	0.95919
497.2	0.96379
497.4	0.96735
497.6	0.96945
497.8	0.97048
498.0	0.97069
498.2	0.96846
498.4	0.96303
498.6	0.95995
498.8	0.95781
499.0	0.95743
499.2	0.95978
499.4	0.96156
499.6	0.96389
499.8	0.96299
500.0	0.96545
500.2	0.96611
500.4	0.9637
500.6	0.96201
500.8	0.95847
501.0	0.95758
501.2	0.95437
501.4	0.95346
501.6	0.95474
501.8	0.95761
502.0	0.96203
502.2	0.96452
502.4	0.96362
502.6	0.96452
502.8	0.96347
503.0	0.95816
503.2	0.95458
503.4	0.95391
503.6	0.95115
503.8	0.95178
504.0	0.95563
504.2	0.95931
504.4	0.96103
504.6	0.96401
504.8	0.96645
505.0	0.96555
505.2	0.96301
505.4	0.95939
505.6	0.95923
505.8	0.95484
506.0	0.95387
506.2	0.95465
506.4	0.95805
506.6	0.95926
506.8	0.96401
507.0	0.96767
507.2	0.96788
507.4	0.96714
507.6	0.96468
507.8	0.96157
508.0	0.95791
508.2	0.95553
508.4	0.95346
508.6	0.95228
508.8	0.95513
509.0	0.96022
509.2	0.9632
509.4	0.96565
509.6	0.96778
509.8	0.96931
510.0	0.96816
510.2	0.96453
510.4	0.96263
510.6	0.96125
510.8	0.96048
511.0	0.96009
511.2	0.96064
511.4	0.96274
511.6	0.96656
511.8	0.96665
512.0	0.96818
512.2	0.96621
512.4	0.96577
512.6	0.96194
512.8	0.96006
513.0	0.95937
513.2	0.95775
513.4	0.95928
513.6	0.96053
513.8	0.96329
514.0	0.96442
514.2	0.96471
514.4	0.96355
514.6	0.96095
514.8	0.95642
515.0	0.94818
515.2	0.94226
515.4	0.94134
515.6	0.9376
515.8	0.93963
516.0	0.94393
516.2	0.94906
516.4	0.95557
516.6	0.96062
516.8	0.96771
517.0	0.97168
517.2	0.97137
517.4	0.96951
517.6	0.96794
517.8	0.96433
518.0	0.96085
518.2	0.95892
518.4	0.95913
518.6	0.95863
518.8	0.95995
519.0	0.96549
519.2	0.96761
519.4	0.96955
519.6	0.96974
519.8	0.96828
520.0	0.96368
520.2	0.96053
520.4	0.95872
520.6	0.95614
520.8	0.95592
521.0	0.95506
521.2	0.95866
521.4	0.96173
521.6	0.96609
521.8	0.96855
522.0	0.96727
522.2	0.97075
522.4	0.96863
522.6	0.96556
522.8	0.96382
523.0	0.95972
523.2	0.95581
523.4	0.9535
523.6	0.95421
523.8	0.95353
524.0	0.9561
524.2	0.9576
524.4	0.96068
524.6	0.96095
524.8	0.96277
525.0	0.96102
525.2	0.9603
525.4	0.95774
525.6	0.95705
525.8	0.95694
526.0	0.95623
526.2	0.95646
526.4	0.95852
526.6	0.96133
526.8	0.96366
527.0	0.96543
527.2	0.96687
527.4	0.96433
527.6	0.96536
527.8	0.96169
528.0	0.95995
528.2	0.95969
528.4	0.95808
528.6	0.95849
528.8	0.96057
529.0	0.96367
529.2	0.96523
529.4	0.96736
529.6	0.96714
529.8	0.96922
530.0	0.96685
530.2	0.96335
530.4	0.96186
530.6	0.95832
530.8	0.95558
531.0	0.95676
531.2	0.95507
531.4	0.95804
531.6	0.9615
531.8	0.96413
532.0	0.96664
532.2	0.96882
532.4	0.97005
532.6	0.96736
532.8	0.96303
533.0	0.96064
533.2	0.95791
533.4	0.95243
533.6	0.95078
533.8	0.94891
534.0	0.95097
534.2	0.95319
534.4	0.95571
534.6	0.96215
534.8	0.9667
535.0	0.96794
535.2	0.96745
535.4	0.96651
535.6	0.96552
535.8	0.9591
536.0	0.95738
536.2	0.95504
536.4	0.95344
536.6	0.95445
536.8	0.95567
537.0	0.95593
537.2	0.95914
537.4	0.95957
537.6	0.96192
537.8	0.96354
538.0	0.96341
538.2	0.9613
538.4	0.95952
538.6	0.95515
538.8	0.95375
539.0	0.95088
539.2	0.95304
539.4	0.95351
539.6	0.95452
539.8	0.9576
540.0	0.95888
540.2	0.9648
540.4	0.96433
540.6	0.96802
540.8	0.96952
541.0	0.96614
541.2	0.96328
541.4	0.96371
541.6	0.95908
541.8	0.95722
542.0	0.96097
542.2	0.96188
542.4	0.96104
542.6	0.9651
542.8	0.96959
543.0	0.97089
543.2	0.96982
543.4	0.97077
543.6	0.97032
543.8	0.96753
544.0	0.96716
544.2	0.96486
544.4	0.96
544.6	0.9614
544.8	0.95989
545.0	0.95987
545.2	0.96342
545.4	0.96343
545.6	0.96715
545.8	0.9702
546.0	0.96918
546.2	0.9696
546.4	0.96619
546.6	0.96398
546.8	0.96014
547.0	0.95848
547.2	0.95692
547.4	0.95356
547.6	0.95253
547.8	0.95616
548.0	0.95368
548.2	0.95637
548.4	0.95947
548.6	0.96046
548.8	0.96309
549.0	0.96436
549.2	0.96163
549.4	0.96153
549.6	0.95686
549.8	0.95333
550.0	0.95096
550.2	0.95074
550.4	0.94902
550.6	0.94917
550.8	0.9519
551.0	0.95436
551.2	0.9571
551.4	0.96121
551.6	0.96312
551.8	0.9641
552.0	0.96547
552.2	0.9636
552.4	0.96226
552.6	0.95923
552.8	0.95756
553.0	0.95558
553.2	0.95453
553.4	0.95345
553.6	0.95579
553.8	0.95885
554.0	0.96003
554.2	0.96475
554.4	0.96984
554.6	0.96852
554.8	0.97092
555.0	0.97146
555.2	0.96498
555.4	0.96268
555.6	0.9607
555.8	0.95758
556.0	0.95529
556.2	0.95571
556.4	0.95525
556.6	0.95527
556.8	0.95976
557.0	0.96265
557.2	0.96205
557.4	0.96665
557.6	0.96816
557.8	0.96754
558.0	0.96583
558.2	0.96398
558.4	0.9637
558.6	0.95908
558.8	0.9578
559.0	0.95432
559.2	0.95538
559.4	0.95641
559.6	0.9564
559.8	0.95728
560.0	0.96172
560.2	0.96481
560.4	0.96843
560.6	0.96703
560.8	0.96499
561.0	0.96366
561.2	0.96211
561.4	0.95665
561.6	0.95354
561.8	0.95091
562.0	0.94694
562.2	0.9481
562.4	0.94984
562.6	0.9532
562.8	0.95463
563.0	0.95633
563.2	0.9623
563.4	0.96392
563.6	0.9672
563.8	0.9661
564.0	0.96522
564.2	0.96334
564.4	0.95789
564.6	0.95202
564.8	0.95173
565.0	0.9468
565.2	0.94998
565.4	0.95049
565.6	0.95497
565.8	0.95605
566.0	0.95859
566.2	0.96262
566.4	0.96546
566.6	0.96715
566.8	0.96827
567.0	0.96905
567.2	0.9681
567.4	0.96455
567.6	0.96335
567.8	0.96028
568.0	0.95685
568.2	0.95706
568.4	0.95722
568.6	0.95704
568.8	0.95967
569.0	0.9634
569.2	0.96722
569.4	0.96885
569.6	0.97091
569.8	0.96652
570.0	0.96713
570.2	0.96665
570.4	0.95998
570.6	0.95532
570.8	0.9547
571.0	0.9528
571.2	0.94946
571.4	0.95082
571.6	0.95383
571.8	0.95508
572.0	0.95699
572.2	0.96105
572.4	0.9671
572.6	0.96532
572.8	0.96686
573.0	0.96666
573.2	0.96519
573.4	0.96463
573.6	0.95922
573.8	0.95589
574.0	0.9517
574.2	0.94631
574.4	0.94485
574.6	0.94711
574.8	0.94493
575.0	0.94813
575.2	0.9501
575.4	0.95452
575.6	0.95999
575.8	0.96027
576.0	0.96237
576.2	0.96189
576.4	0.96308
576.6	0.9623
576.8	0.95922
577.0	0.95591
577.2	0.9547
577.4	0.9515
577.6	0.95113
577.8	0.95207
578.0	0.95263
578.2	0.95398
578.4	0.95533
578.6	0.96008
578.8	0.96187
579.0	0.96421
579.2	0.96546
579.4	0.96553
579.6	0.96046
579.8	0.96015
580.0	0.95848
580.2	0.95661
580.4	0.95331
580.6	0.95223
580.8	0.95334
581.0	0.95303
581.2	0.95722
581.4	0.95662
581.6	0.96072
581.8	0.96248
582.0	0.96703
582.2	0.96805
582.4	0.96854
582.6	0.96636
582.8	0.96677
583.0	0.96325
583.2	0.9589
583.4	0.95593
583.6	0.95408
583.8	0.95242
584.0	0.95192
584.2	0.95266
584.4	0.9536
584.6	0.95623
584.8	0.95889
585.0	0.96151
585.2	0.96696
585.4	0.96751
585.6	0.96843
585.8	0.96635
586.0	0.96395
586.2	0.95982
586.4	0.95634
586.6	0.95623
586.8	0.95323
587.0	0.9534
587.2	0.94895
587.4	0.95016
587.6	0.95267
587.8	0.95537
588.0	0.95647
588.2	0.96041
588.4	0.95865
588.6	0.96048
588.8	0.9622
589.0	0.96205
589.2	0.96035
589.4	0.96008
589.6	0.95542
589.8	0.95092
590.0	0.9489
590.2	0.94515
590.4	0.94565
590.6	0.94624
590.8	0.94863
591.0	0.94945
591.2	0.95301
591.4	0.95525
591.6	0.96047
591.8	0.96218
592.0	0.96796
592.2	0.96713
592.4	0.96538
592.6	0.96558
592.8	0.96063
593.0	0.95746
593.2	0.95191
593.4	0.95128
593.6	0.94723
593.8	0.95127
594.0	0.95048
594.2	0.95031
594.4	0.95457
594.6	0.95932
594.8	0.96304
595.0	0.96647
595.2	0.96868
595.4	0.97088
595.6	0.96777
595.8	0.96845
596.0	0.96671
596.2	0.96453
596.4	0.96193
596.6	0.95656
596.8	0.95473
597.0	0.95128
597.2	0.95839
597.4	0.95783
597.6	0.95842
597.8	0.96158
598.0	0.9643
598.2	0.9685
598.4	0.97016
598.6	0.97074
598.8	0.96993
599.0	0.96997
599.2	0.96557
599.4	0.96371
599.6	0.9583
599.8	0.95459
600.0	0.95242
600.2	0.94977
600.4	0.94957
600.6	0.95044
600.8	0.95042
601.0	0.95439
601.2	0.95853
601.4	0.96016
601.6	0.96323
601.8	0.9633
602.0	0.96345
602.2	0.96628
602.4	0.96365
602.6	0.95965
602.8	0.9558
603.0	0.95263
603.2	0.95092
603.4	0.94473
603.6	0.94621
603.8	0.94316
604.0	0.94392
604.2	0.94913
604.4	0.95145
604.6	0.95598
604.8	0.95945
605.0	0.96321
605.2	0.96501
605.4	0.96905
605.6	0.96399
605.8	0.96069
606.0	0.95783
606.2	0.95313
606.4	0.94983
606.6	0.94247
606.8	0.94145
607.0	0.93833
607.2	0.9392
607.4	0.94278
607.6	0.94564
607.8	0.94798
608.0	0.95261
608.2	0.95987
608.4	0.96325
608.6	0.96597
608.8	0.96723
609.0	0.96678
609.2	0.9676
609.4	0.9637
609.6	0.96003
609.8	0.95607
610.0	0.9488
610.2	0.95158
610.4	0.95049
610.6	0.94946
610.8	0.94837
611.0	0.95447
611.2	0.96103
611.4	0.96322
611.6	0.96824
611.8	0.97057
612.0	0.97226
612.2	0.97332
612.4	0.97275
612.6	0.96881
612.8	0.9664
613.0	0.96117
613.2	0.95613
613.4	0.95479
613.6	0.95481
613.8	0.95362
614.0	0.95416
614.2	0.95646
614.4	0.95562
614.6	0.96437
614.8	0.96883
615.0	0.97041
615.2	0.96939
615.4	0.97074
615.6	0.97202
615.8	0.96609
616.0	0.96003
616.2	0.95469
616.4	0.94908
616.6	0.94453
616.8	0.94622
617.0	0.94492
617.2	0.94498
617.4	0.94724
617.6	0.95206
617.8	0.95476
618.0	0.96046
618.2	0.96543
618.4	0.9692
618.6	0.96705
618.8	0.9671
619.0	0.96492
619.2	0.96296
619.4	0.9549
619.6	0.95231
619.8	0.94874
620.0	0.94765
620.2	0.9446
620.4	0.94402
620.6	0.94862
620.8	0.9542
621.0	0.95736
621.2	0.96052
621.4	0.96354
621.6	0.96265
621.8	0.9635
622.0	0.95891
622.2	0.95258
622.4	0.9485
622.6	0.94473
622.8	0.94103
623.0	0.94336
623.2	0.9476
623.4	0.94824
623.6	0.95143
623.8	0.96033
624.0	0.96226
624.2	0.9653
624.4	0.96321
624.6	0.95898
624.8	0.95294
625.0	0.94924
625.2	0.94848
625.4	0.95239
625.6	0.95525
625.8	0.95953
626.0	0.96404
626.2	0.95941
626.4	0.95089
626.6	0.95094
626.8	0.95079
627.0	0.94778
627.2	0.88055
627.4	0.70215
627.6	0.44937
627.8	0.24196
628.0	0.11784
628.2	0.05613
628.4	0.02768
628.6	0.01489
628.8	0.0082
629.0	0.00472
629.2	0.00279
629.4	0.00171
629.6	0.00105
629.8	6.6737e-04
630.0	4.4007e-04
630.2	2.9643e-04
630.4	2.0448e-04
630.6	1.4079e-04
630.8	9.9007e-05
631.0	7.3721e-05
631.2	5.4037e-05
631.4	4.1095e-05
631.6	3.0561e-05
631.8	2.2945e-05
632.0	1.8208e-05
632.2	1.3855e-05
632.4	1.1061e-05
632.6	8.5913e-06
632.8	7.2174e-06
633.0	5.725e-06
633.2	4.9007e-06
633.4	4.3334e-06
633.6	3.4915e-06
633.8	2.7401e-06
634.0	2.3445e-06
634.2	2.1243e-06
634.4	1.7626e-06
634.6	1.4485e-06
634.8	1.377e-06
635.0	1.2682e-06
635.2	1.0735e-06
635.4	9.1073e-07
635.6	9.7014e-07
635.8	9.4348e-07
636.0	9.0173e-07
636.2	7.1175e-07
636.4	7.2236e-07
636.6	6.3743e-07
636.8	6.095e-07
637.0	7.6229e-07
637.2	5.3259e-07
637.4	6.4561e-07
637.6	6.0166e-07
637.8	4.8623e-07
638.0	5.1716e-07
638.2	6.0438e-07
638.4	6.8182e-07
638.6	5.2939e-07
638.8	5.7311e-07
639.0	4.2898e-07
639.2	3.0108e-07
639.4	3.9881e-07
639.6	6.9625e-07
639.8	5.3131e-07
640.0	2.2758e-07
640.2	6.4641e-07
640.4	5.0421e-07
640.6	4.3283e-07
640.8	5.3364e-07
641.0	4.3636e-07
641.2	5.0267e-07
641.4	5.8666e-07
641.6	4.2108e-07
641.8	4.1359e-07
642.0	3.0303e-07
642.2	4.2857e-07
642.4	4.8304e-07
642.6	7.0385e-07
642.8	5.7593e-07
643.0	4.6975e-07
643.2	3.7691e-07
643.4	2.9561e-07
643.6	6.8809e-07
643.8	4.629e-07
644.0	6.9772e-07
644.2	3.6019e-07
644.4	4.624e-07
644.6	8.884e-07
644.8	8.9747e-07
645.0	8.7021e-07
645.2	9.0842e-07
645.4	1.305e-06
645.6	1.1654e-06
645.8	1.4296e-06
646.0	1.8793e-06
646.2	1.9179e-06
646.4	2.0716e-06
646.6	2.44e-06
646.8	2.3442e-06
647.0	2.7261e-06
647.2	3.6508e-06
647.4	4.2873e-06
647.6	5.1019e-06
647.8	6.0646e-06
648.0	7.4168e-06
648.2	9.1678e-06
648.4	1.1199e-05
648.6	1.3232e-05
648.8	1.7926e-05
649.0	2.2136e-05
649.2	2.9402e-05
649.4	3.9049e-05
649.6	5.1023e-05
649.8	6.7331e-05
650.0	9.0923e-05
650.2	1.2278e-04
650.4	1.7689e-04
650.6	2.4213e-04
650.8	3.4097e-04
651.0	4.8114e-04
651.2	7.0711e-04
651.4	0.00107
651.6	0.00165
651.8	0.00341
652.0	0.00504
652.2	0.00796
652.4	0.01324
652.6	0.02363
652.8	0.04492
653.0	0.09266
653.2	0.19965
653.4	0.38655
653.6	0.65775
653.8	0.87284
654.0	0.94747
654.2	0.93596
654.4	0.91429
654.6	0.91447
654.8	0.92956
655.0	0.94705
655.2	0.96061
655.4	0.96105
655.6	0.96035
655.8	0.94854
656.0	0.9406
656.2	0.93509
656.4	0.92838
656.6	0.92916
656.8	0.9361
657.0	0.94629
657.2	0.95793
657.4	0.95831
657.6	0.96475
657.8	0.96683
658.0	0.96391
658.2	0.95733
658.4	0.95167
658.6	0.94878
658.8	0.9387
659.0	0.93841
659.2	0.93912
659.4	0.94086
659.6	0.94487
659.8	0.95172
660.0	0.95733
660.2	0.96316
660.4	0.96605
660.6	0.97062
660.8	0.97299
661.0	0.96792
661.2	0.9616
661.4	0.96033
661.6	0.96014
661.8	0.95465
662.0	0.95094
662.2	0.94897
662.4	0.94875
662.6	0.94836
662.8	0.94693
663.0	0.95295
663.2	0.95612
663.4	0.96269
663.6	0.96695
663.8	0.96946
664.0	0.9702
664.2	0.97187
664.4	0.97
664.6	0.97263
664.8	0.96867
665.0	0.96605
665.2	0.96236
665.4	0.96124
665.6	0.95722
665.8	0.96012
666.0	0.96037
666.2	0.96072
666.4	0.96213
666.6	0.96083
666.8	0.96667
667.0	0.96823
667.2	0.97234
667.4	0.97205
667.6	0.97371
667.8	0.97408
668.0	0.9734
668.2	0.9723
668.4	0.96984
668.6	0.96741
668.8	0.96207
669.0	0.95934
669.2	0.95926
669.4	0.95712
669.6	0.95625
669.8	0.95163
670.0	0.95655
670.2	0.95636
670.4	0.95797
670.6	0.96116
670.8	0.96409
671.0	0.96801
671.2	0.96601
671.4	0.96631
671.6	0.96824
671.8	0.96478
672.0	0.96696
672.2	0.96257
672.4	0.96049
672.6	0.95713
672.8	0.9537
673.0	0.94722
673.2	0.94953
673.4	0.94907
673.6	0.94553
673.8	0.94851
674.0	0.94682
674.2	0.94692
674.4	0.9488
674.6	0.95218
674.8	0.95515
675.0	0.95781
675.2	0.95931
675.4	0.96533
675.6	0.96457
675.8	0.96507
676.0	0.96539
676.2	0.96418
676.4	0.96401
676.6	0.96465
676.8	0.96035
677.0	0.95947
677.2	0.95984
677.4	0.95789
677.6	0.95703
677.8	0.95264
678.0	0.95395
678.2	0.95345
678.4	0.95446
678.6	0.95565
678.8	0.95735
679.0	0.95722
679.2	0.95742
679.4	0.96105
679.6	0.95961
679.8	0.95896
680.0	0.95811
680.2	0.95811
680.4	0.95857
680.6	0.95821
680.8	0.95488
681.0	0.95962
681.2	0.95751
681.4	0.95544
681.6	0.95676
681.8	0.95681
682.0	0.95682
682.2	0.95768
682.4	0.95791
682.6	0.95591
682.8	0.95902
683.0	0.96154
683.2	0.96594
683.4	0.96537
683.6	0.96768
683.8	0.96699
684.0	0.96838
684.2	0.96547
684.4	0.96547
684.6	0.96462
684.8	0.96464
685.0	0.96309
685.2	0.96313
685.4	0.95899
685.6	0.95931
685.8	0.96086
686.0	0.95877
686.2	0.95259
686.4	0.95235
686.6	0.95625
686.8	0.95918
687.0	0.95979
687.2	0.95925
687.4	0.96167
687.6	0.9634
687.8	0.96351
688.0	0.96498
688.2	0.9688
688.4	0.9661
688.6	0.96497
688.8	0.96421
689.0	0.96773
689.2	0.96562
689.4	0.95775
689.6	0.95723
689.8	0.95531
690.0	0.95263
690.2	0.95263
690.4	0.95058
690.6	0.94556
690.8	0.9487
691.0	0.94641
691.2	0.9441
691.4	0.94508
691.6	0.95021
691.8	0.94868
692.0	0.95429
692.2	0.95551
692.4	0.95796
692.6	0.95831
692.8	0.96018
693.0	0.96252
693.2	0.96287
693.4	0.96139
693.6	0.95964
693.8	0.95982
694.0	0.9595
694.2	0.95661
694.4	0.95484
694.6	0.95365
694.8	0.95402
695.0	0.94859
695.2	0.95364
695.4	0.95258
695.6	0.94996
695.8	0.95164
696.0	0.94928
696.2	0.95068
696.4	0.95472
696.6	0.95432
696.8	0.95181
697.0	0.95617
697.2	0.9564
697.4	0.95733
697.6	0.95777
697.8	0.95589
698.0	0.95393
698.2	0.95547
698.4	0.95729
698.6	0.95461
698.8	0.95222
699.0	0.95076
699.2	0.95166
699.4	0.95238
699.6	0.95362
699.8	0.95365
700.0	0.95104
700.2	0.95351
700.4	0.95497
700.6	0.95687
700.8	0.95786
701.0	0.95722
701.2	0.95624
701.4	0.9572
701.6	0.96057
701.8	0.95759
702.0	0.96151
702.2	0.96281
702.4	0.96461
702.6	0.96827
702.8	0.96542
703.0	0.96312
703.2	0.96295
703.4	0.95997
703.6	0.96036
703.8	0.95871
704.0	0.95803
704.2	0.9547
704.4	0.95218
704.6	0.95605
704.8	0.95492
705.0	0.95489
705.2	0.95553
705.4	0.95532
705.6	0.95746
705.8	0.95992
706.0	0.957
706.2	0.95767
706.4	0.96131
706.6	0.96063
706.8	0.96289
707.0	0.96274
707.2	0.96212
707.4	0.96101
707.6	0.96049
707.8	0.95763
708.0	0.95777
708.2	0.95955
708.4	0.95738
708.6	0.9539
708.8	0.95324
709.0	0.95481
709.2	0.95676
709.4	0.95462
709.6	0.95571
709.8	0.95304
710.0	0.95702
710.2	0.95439
710.4	0.95672
710.6	0.95951
710.8	0.95875
711.0	0.95956
711.2	0.96079
711.4	0.96109
711.6	0.96159
711.8	0.96307
712.0	0.96012
712.2	0.9632
712.4	0.96192
712.6	0.96115
712.8	0.95894
713.0	0.95313
713.2	0.95495
713.4	0.9538
713.6	0.95174
713.8	0.94904
714.0	0.9524
714.2	0.94886
714.4	0.94541
714.6	0.94376
714.8	0.94165
715.0	0.94597
715.2	0.94838
715.4	0.94784
715.6	0.94965
715.8	0.95368
716.0	0.95395
716.2	0.95449
716.4	0.95686
716.6	0.95985
716.8	0.96333
717.0	0.96127
717.2	0.96045
717.4	0.96083
717.6	0.96121
717.8	0.95934
718.0	0.95581
718.2	0.95376
718.4	0.9528
718.6	0.94992
718.8	0.94894
719.0	0.94406
719.2	0.94724
719.4	0.94554
719.6	0.9491
719.8	0.94772
720.0	0.94794
720.2	0.94676
720.4	0.94896
720.6	0.95028
720.8	0.95428
721.0	0.95409
721.2	0.95111
721.4	0.95349
721.6	0.95511
721.8	0.95431
722.0	0.95763
722.2	0.96005
722.4	0.95779
722.6	0.95765
722.8	0.95625
723.0	0.95649
723.2	0.95768
723.4	0.955
723.6	0.95614
723.8	0.9542
724.0	0.95443
724.2	0.95542
724.4	0.95652
724.6	0.95605
724.8	0.95675
725.0	0.95626
725.2	0.95593
725.4	0.9574
725.6	0.95619
725.8	0.95951
726.0	0.95714
726.2	0.9596
726.4	0.96252
726.6	0.96821
726.8	0.96643
727.0	0.96986
727.2	0.96457
727.4	0.96689
727.6	0.96569
727.8	0.96727
728.0	0.96417
728.2	0.96576
728.4	0.96182
728.6	0.96362
728.8	0.96427
729.0	0.9634
729.2	0.96125
729.4	0.9591
729.6	0.95948
729.8	0.95641
730.0	0.95697
730.2	0.96122
730.4	0.96018
730.6	0.96324
730.8	0.96429
731.0	0.9644
731.2	0.96359
731.4	0.96445
731.6	0.96686
731.8	0.96615
732.0	0.96519
732.2	0.96804
732.4	0.96903
732.6	0.9656
732.8	0.9632
733.0	0.96328
733.2	0.96268
733.4	0.96283
733.6	0.95944
733.8	0.95535
734.0	0.9525
734.2	0.95764
734.4	0.95715
734.6	0.95369
734.8	0.9535
735.0	0.95708
735.2	0.95824
735.4	0.95873
735.6	0.95264
735.8	0.95091
736.0	0.94967
736.2	0.94989
736.4	0.95276
736.6	0.95235
736.8	0.9562
737.0	0.95725
737.2	0.96172
737.4	0.96378
737.6	0.95851
737.8	0.95736
738.0	0.95584
738.2	0.95656
738.4	0.95619
738.6	0.94966
738.8	0.95198
739.0	0.95014
739.2	0.94968
739.4	0.95096
739.6	0.94891
739.8	0.94853
740.0	0.94819
740.2	0.94785
740.4	0.94968
740.6	0.95305
740.8	0.95226
741.0	0.95206
741.2	0.95083
741.4	0.95354
741.6	0.95608
741.8	0.95485
742.0	0.95325
742.2	0.95108
742.4	0.95408
742.6	0.95608
742.8	0.95822
743.0	0.95562
743.2	0.95697
743.4	0.95863
743.6	0.95596
743.8	0.959
744.0	0.95619
744.2	0.95593
744.4	0.95577
744.6	0.95737
744.8	0.95316
745.0	0.95361
745.2	0.94855
745.4	0.94647
745.6	0.95163
745.8	0.95612
746.0	0.95326
746.2	0.95454
746.4	0.95303
746.6	0.95053
746.8	0.95449
747.0	0.95801
747.2	0.96005
747.4	0.95718
747.6	0.95712
747.8	0.96237
748.0	0.96377
748.2	0.96519
748.4	0.96768
748.6	0.9633
748.8	0.96174
749.0	0.96516
749.2	0.96778
749.4	0.96275
749.6	0.96276
749.8	0.96058
750.0	0.9605
750.2	0.96447
750.4	0.96372
750.6	0.96104
750.8	0.95991
751.0	0.95675
751.2	0.95966
751.4	0.96139
751.6	0.96189
751.8	0.96024
752.0	0.95688
752.2	0.96201
752.4	0.9643
752.6	0.96395
752.8	0.96485
753.0	0.96597
753.2	0.96637
753.4	0.9643
753.6	0.96698
753.8	0.96811
754.0	0.96987
754.2	0.96867
754.4	0.96989
754.6	0.96893
754.8	0.96879
755.0	0.96611
755.2	0.96464
755.4	0.96643
755.6	0.96317
755.8	0.95988
756.0	0.9617
756.2	0.9609
756.4	0.95474
756.6	0.95402
756.8	0.95453
757.0	0.95415
757.2	0.95328
757.4	0.95568
757.6	0.95852
757.8	0.95714
758.0	0.95754
758.2	0.95915
758.4	0.95858
758.6	0.95699
758.8	0.95825
759.0	0.9595
759.2	0.95839
759.4	0.95785
759.6	0.95813
759.8	0.96112
760.0	0.9582
760.2	0.95996
760.4	0.9608
760.6	0.96027
760.8	0.95841
761.0	0.95785
761.2	0.95676
761.4	0.95613
761.6	0.95795
761.8	0.95591
762.0	0.95448
762.2	0.95024
762.4	0.94614
762.6	0.95214
762.8	0.95257
763.0	0.94896
763.2	0.94487
763.4	0.94499
763.6	0.94621
763.8	0.95032
764.0	0.95151
764.2	0.94859
764.4	0.95111
764.6	0.95391
764.8	0.95146
765.0	0.95419
765.2	0.95601
765.4	0.95734
765.6	0.95523
765.8	0.95695
766.0	0.956
766.2	0.95614
766.4	0.95702
766.6	0.95653
766.8	0.95303
767.0	0.95485
767.2	0.95722
767.4	0.95189
767.6	0.95384
767.8	0.95381
768.0	0.9571
768.2	0.95538
768.4	0.94955
768.6	0.948
768.8	0.94949
769.0	0.95387
769.2	0.95432
769.4	0.95136
769.6	0.95197
769.8	0.95213
770.0	0.94906
770.2	0.95304
770.4	0.95664
770.6	0.95367
770.8	0.95566
771.0	0.95475
771.2	0.95861
771.4	0.96098
771.6	0.9631
771.8	0.96261
772.0	0.96198
772.2	0.96145
772.4	0.95884
772.6	0.95773
772.8	0.95868
773.0	0.96023
773.2	0.95907
773.4	0.96057
773.6	0.95781
773.8	0.95773
774.0	0.95852
774.2	0.95654
774.4	0.95451
774.6	0.95505
774.8	0.95709
775.0	0.95915
775.2	0.95782
775.4	0.95949
775.6	0.95762
775.8	0.9589
776.0	0.96039
776.2	0.95774
776.4	0.96387
776.6	0.96536
776.8	0.96535
777.0	0.96627
777.2	0.96298
777.4	0.96792
777.6	0.9634
777.8	0.96462
778.0	0.96011
778.2	0.96234
778.4	0.96261
778.6	0.96476
778.8	0.96274
779.0	0.96381
779.2	0.9655
779.4	0.96408
779.6	0.96211
779.8	0.96203
780.0	0.96365
780.2	0.96306
780.4	0.96029
780.6	0.95924
780.8	0.96062
781.0	0.96568
781.2	0.96241
781.4	0.96354
781.6	0.96153
781.8	0.95849
782.0	0.95949
782.2	0.96279
782.4	0.95958
782.6	0.96424
782.8	0.96418
783.0	0.96638
783.2	0.96416
783.4	0.96553
783.6	0.96971
783.8	0.96775
784.0	0.96878
784.2	0.96689
784.4	0.96191
784.6	0.96444
784.8	0.96465
785.0	0.96235
785.2	0.95765
785.4	0.95811
785.6	0.96238
785.8	0.96022
786.0	0.95645
786.2	0.95772
786.4	0.95939
786.6	0.95082
786.8	0.94965
787.0	0.95175
787.2	0.95098
787.4	0.95503
787.6	0.95606
787.8	0.95744
788.0	0.95422
788.2	0.95774
788.4	0.95635
788.6	0.95817
788.8	0.95818
789.0	0.95841
789.2	0.95851
789.4	0.95965
789.6	0.96014
789.8	0.95541
790.0	0.94933
790.2	0.95389
790.4	0.95593
790.6	0.95883
790.8	0.95488
791.0	0.95463
791.2	0.95352
791.4	0.95488
791.6	0.9513
791.8	0.95194
792.0	0.9537
792.2	0.94987
792.4	0.94936
792.6	0.94951
792.8	0.95143
793.0	0.94808
793.2	0.944
793.4	0.9473
793.6	0.95205
793.8	0.95279
794.0	0.9542
794.2	0.95578
794.4	0.95765
794.6	0.95629
794.8	0.95691
795.0	0.95501
795.2	0.95775
795.4	0.95936
795.6	0.95776
795.8	0.96021
796.0	0.95814
796.2	0.95866
796.4	0.95926
796.6	0.95446
796.8	0.95494
797.0	0.95772
797.2	0.96109
797.4	0.96352
797.6	0.95992
797.8	0.95644
798.0	0.95468
798.2	0.95362
798.4	0.95558
798.6	0.95065
798.8	0.9517
799.0	0.95589
799.2	0.95255
799.4	0.95239
799.6	0.95326
799.8	0.957
800.0	0.95541
800.2	0.9545
800.4	0.95492
800.6	0.95635
800.8	0.95582
801.0	0.95793
801.2	0.95983
801.4	0.96151
801.6	0.96356
801.8	0.96547
802.0	0.96723
802.2	0.96784
802.4	0.96428
802.6	0.965
802.8	0.96542
803.0	0.96543
803.2	0.96464
803.4	0.9628
803.6	0.96405
803.8	0.9656
804.0	0.96461
804.2	0.96111
804.4	0.9584
804.6	0.95794
804.8	0.95949
805.0	0.96245
805.2	0.95823
805.4	0.95702
805.6	0.95899
805.8	0.96186
806.0	0.96276
806.2	0.96593
806.4	0.96549
806.6	0.9654
806.8	0.96665
807.0	0.96655
807.2	0.96943
807.4	0.96807
807.6	0.96471
807.8	0.97061
808.0	0.9674
808.2	0.9633
808.4	0.96501
808.6	0.96544
808.8	0.96806
809.0	0.9701
809.2	0.97358
809.4	0.97103
809.6	0.97001
809.8	0.97003
810.0	0.96772
810.2	0.96151
810.4	0.96128
810.6	0.95955
810.8	0.96316
811.0	0.96415
811.2	0.96012
811.4	0.95855
811.6	0.95848
811.8	0.95753
812.0	0.95755
812.2	0.95663
812.4	0.95528
812.6	0.95542
812.8	0.95779
813.0	0.9566
813.2	0.9587
813.4	0.96162
813.6	0.96095
813.8	0.96195
814.0	0.9654
814.2	0.96044
814.4	0.95632
814.6	0.96115
814.8	0.96289
815.0	0.96109
815.2	0.96297
815.4	0.9651
815.6	0.96274
815.8	0.96332
816.0	0.96081
816.2	0.95939
816.4	0.9605
816.6	0.96073
816.8	0.95913
817.0	0.9563
817.2	0.95522
817.4	0.95994
817.6	0.95973
817.8	0.95667
818.0	0.95404
818.2	0.95591
818.4	0.95594
818.6	0.953
818.8	0.95264
819.0	0.95678
819.2	0.9548
819.4	0.95549
819.6	0.95499
819.8	0.95589
820.0	0.95392
820.2	0.95523
820.4	0.95806
820.6	0.95975
820.8	0.95693
821.0	0.95363
821.2	0.95401
821.4	0.95504
821.6	0.95651
821.8	0.95625
822.0	0.95349
822.2	0.95633
822.4	0.96099
822.6	0.96303
822.8	0.96009
823.0	0.95864
823.2	0.96077
823.4	0.96264
823.6	0.95839
823.8	0.95786
824.0	0.95536
824.2	0.95161
824.4	0.95159
824.6	0.94962
824.8	0.95066
825.0	0.95515
825.2	0.95335
825.4	0.95337
825.6	0.94973
825.8	0.9542
826.0	0.95346
826.2	0.95316
826.4	0.9555
826.6	0.9563
826.8	0.95157
827.0	0.95257
827.2	0.95588
827.4	0.95752
827.6	0.96145
827.8	0.96015
828.0	0.95677
828.2	0.96217
828.4	0.96422
828.6	0.96655
828.8	0.96584
829.0	0.9644
829.2	0.96441
829.4	0.96721
829.6	0.96887
829.8	0.96239
830.0	0.95901
830.2	0.96317
830.4	0.96199
830.6	0.95858
830.8	0.9567
831.0	0.95754
831.2	0.9622
831.4	0.9573
831.6	0.95508
831.8	0.9551
832.0	0.95949
832.2	0.96432
832.4	0.96587
832.6	0.9625
832.8	0.96156
833.0	0.96103
833.2	0.9612
833.4	0.96229
833.6	0.96593
833.8	0.96501
834.0	0.96305
834.2	0.9588
834.4	0.96292
834.6	0.96513
834.8	0.97166
835.0	0.96821
835.2	0.9656
835.4	0.96964
835.6	0.97056
835.8	0.96663
836.0	0.96269
836.2	0.96332
836.4	0.96558
836.6	0.96782
836.8	0.96856
837.0	0.96417
837.2	0.96646
837.4	0.9679
837.6	0.96485
837.8	0.96165
838.0	0.96896
838.2	0.97176
838.4	0.96427
838.6	0.96608
838.8	0.96314
839.0	0.9656
839.2	0.96383
839.4	0.96265
839.6	0.96217
839.8	0.9603
840.0	0.95947
840.2	0.95596
840.4	0.95686
840.6	0.96409
840.8	0.96414
841.0	0.96248
841.2	0.96301
841.4	0.96305
841.6	0.96871
841.8	0.97157
842.0	0.96954
842.2	0.97218
842.4	0.97357
842.6	0.96994
842.8	0.96974
843.0	0.96555
843.2	0.96646
843.4	0.96555
843.6	0.96649
843.8	0.96283
844.0	0.96335
844.2	0.96727
844.4	0.96563
844.6	0.96557
844.8	0.96355
845.0	0.95997
845.2	0.9626
845.4	0.95792
845.6	0.96159
845.8	0.95963
846.0	0.9584
846.2	0.96138
846.4	0.95947
846.6	0.95656
846.8	0.95649
847.0	0.95778
847.2	0.95724
847.4	0.95756
847.6	0.96115
847.8	0.96196
848.0	0.95586
848.2	0.95869
848.4	0.96135
848.6	0.96193
848.8	0.96362
849.0	0.96461
849.2	0.96323
849.4	0.95934
849.6	0.9609
849.8	0.96753
850.0	0.96673
850.2	0.96418
850.4	0.96647
850.6	0.96355
850.8	0.96278
851.0	0.96423
851.2	0.95982
851.4	0.96025
851.6	0.9552
851.8	0.95257
852.0	0.9561
852.2	0.95647
852.4	0.95299
852.6	0.95595
852.8	0.95335
853.0	0.95332
853.2	0.95326
853.4	0.94746
853.6	0.94316
853.8	0.94938
854.0	0.95157
854.2	0.94875
854.4	0.94276
854.6	0.94672
854.8	0.95032
855.0	0.95371
855.2	0.9515
855.4	0.95045
855.6	0.9544
855.8	0.95925
856.0	0.96395
856.2	0.96235
856.4	0.96305
856.6	0.96216
856.8	0.96409
857.0	0.96077
857.2	0.96052
857.4	0.96064
857.6	0.96105
857.8	0.96323
858.0	0.96295
858.2	0.96111
858.4	0.95928
858.6	0.96136
858.8	0.96385
859.0	0.96056
859.2	0.9601
859.4	0.95715
859.6	0.95896
859.8	0.95915
860.0	0.95989
860.2	0.95871
860.4	0.95768
860.6	0.95942
860.8	0.96438
861.0	0.96327
861.2	0.9626
861.4	0.96193
861.6	0.96138
861.8	0.96243
862.0	0.96341
862.2	0.95815
862.4	0.95695
862.6	0.96285
862.8	0.96475
863.0	0.96206
863.2	0.96373
863.4	0.96441
863.6	0.9627
863.8	0.96504
864.0	0.96667
864.2	0.97212
864.4	0.97319
864.6	0.96911
864.8	0.96557
865.0	0.96455
865.2	0.96777
865.4	0.97231
865.6	0.97161
865.8	0.97113
866.0	0.97448
866.2	0.97338
866.4	0.96771
866.6	0.97026
866.8	0.97447
867.0	0.97699
867.2	0.97156
867.4	0.96811
867.6	0.96612
867.8	0.96535
868.0	0.96768
868.2	0.96596
868.4	0.96648
868.6	0.96635
868.8	0.96883
869.0	0.97211
869.2	0.97267
869.4	0.96828
869.6	0.96268
869.8	0.96405
870.0	0.96544
870.2	0.96594
870.4	0.9711
870.6	0.97222
870.8	0.97085
871.0	0.97232
871.2	0.96994
871.4	0.96569
871.6	0.96763
871.8	0.97232
872.0	0.97295
872.2	0.971
872.4	0.97016
872.6	0.97283
872.8	0.97126
873.0	0.97041
873.2	0.9692
873.4	0.97226
873.6	0.97156
873.8	0.97204
874.0	0.97182
874.2	0.96927
874.4	0.97041
874.6	0.96586
874.8	0.96267
875.0	0.96204
875.2	0.96223
875.4	0.96516
875.6	0.96934
875.8	0.96774
876.0	0.96752
876.2	0.97036
876.4	0.96697
876.6	0.96119
876.8	0.9608
877.0	0.96524
877.2	0.96505
877.4	0.9666
877.6	0.96584
877.8	0.96202
878.0	0.9585
878.2	0.96198
878.4	0.96467
878.6	0.96049
878.8	0.96367
879.0	0.96779
879.2	0.96571
879.4	0.96754
879.6	0.96683
879.8	0.96309
880.0	0.96089
880.2	0.96283
880.4	0.97048
880.6	0.9666
880.8	0.96452
881.0	0.96748
881.2	0.96587
881.4	0.96791
881.6	0.96577
881.8	0.96767
882.0	0.9666
882.2	0.96339
882.4	0.96282
882.6	0.96574
882.8	0.96697
883.0	0.9648
883.2	0.96393
883.4	0.96137
883.6	0.96061
883.8	0.96098
884.0	0.95975
884.2	0.96149
884.4	0.96128
884.6	0.95984
884.8	0.96205
885.0	0.96294
885.2	0.96223
885.4	0.96435
885.6	0.9641
885.8	0.96241
886.0	0.96085
886.2	0.9598
886.4	0.96333
886.6	0.96179
886.8	0.96379
887.0	0.96159
887.2	0.96252
887.4	0.96417
887.6	0.96419
887.8	0.96248
888.0	0.96705
888.2	0.97152
888.4	0.97156
888.6	0.97352
888.8	0.97218
889.0	0.97092
889.2	0.97142
889.4	0.96632
889.6	0.96478
889.8	0.96467
890.0	0.9697
890.2	0.96936
890.4	0.96811
890.6	0.96537
890.8	0.96712
891.0	0.96468
891.2	0.95907
891.4	0.96174
891.6	0.96477
891.8	0.96808
892.0	0.96858
892.2	0.96889
892.4	0.96622
892.6	0.96113
892.8	0.96129
893.0	0.96105
893.2	0.96555
893.4	0.97237
893.6	0.97491
893.8	0.97157
894.0	0.97078
894.2	0.96832
894.4	0.96405
894.6	0.96218
894.8	0.96653
895.0	0.96556
895.2	0.96188
895.4	0.96275
895.6	0.96514
895.8	0.96777
896.0	0.9691
896.2	0.96771
896.4	0.96706
896.6	0.96751
896.8	0.96718
897.0	0.97052
897.2	0.97412
897.4	0.97759
897.6	0.97575
897.8	0.97313
898.0	0.97237
898.2	0.9702
898.4	0.96774
898.6	0.97255
898.8	0.97285
899.0	0.97562
899.2	0.9738
899.4	0.97096
899.6	0.96853
899.8	0.96813
900.0	0.9685
900.2	0.96905
900.4	0.96813
900.6	0.96832
900.8	0.96898
901.0	0.96509
901.2	0.96667
901.4	0.97071
901.6	0.97463
901.8	0.97646
902.0	0.9761
902.2	0.97293
902.4	0.97075
902.6	0.97497
902.8	0.97844
903.0	0.97697
903.2	0.97529
903.4	0.97274
903.6	0.97654
903.8	0.97834
904.0	0.97703
904.2	0.97792
904.4	0.97672
904.6	0.97636
904.8	0.97811
905.0	0.97436
905.2	0.97621
905.4	0.97392
905.6	0.97359
905.8	0.97748
906.0	0.97773
906.2	0.97677
906.4	0.97543
906.6	0.97972
906.8	0.97771
907.0	0.97436
907.2	0.9721
907.4	0.97044
907.6	0.96961
907.8	0.97362
908.0	0.97435
908.2	0.96879
908.4	0.96778
908.6	0.96792
908.8	0.96305
909.0	0.96688
909.2	0.96986
909.4	0.97287
909.6	0.97434
909.8	0.9773
910.0	0.97453
910.2	0.96883
910.4	0.97069
910.6	0.97409
910.8	0.9747
911.0	0.97369
911.2	0.97367
911.4	0.97359
911.6	0.97422
911.8	0.971
912.0	0.96902
912.2	0.96875
912.4	0.97358
912.6	0.97736
912.8	0.97876
913.0	0.97923
913.2	0.97483
913.4	0.97065
913.6	0.97144
913.8	0.97186
914.0	0.97363
914.2	0.97674
914.4	0.97564
914.6	0.97556
914.8	0.97307
915.0	0.96955
915.2	0.96816
915.4	0.96429
915.6	0.96608
915.8	0.96718
916.0	0.96856
916.2	0.96484
916.4	0.9643
916.6	0.96971
916.8	0.96567
917.0	0.96823
917.2	0.97088
917.4	0.96913
917.6	0.97257
917.8	0.96666
918.0	0.96516
918.2	0.96466
918.4	0.96261
918.6	0.96437
918.8	0.96432
919.0	0.96407
919.2	0.96422
919.4	0.96292
919.6	0.96077
919.8	0.96253
920.0	0.96599
920.2	0.96867
920.4	0.97287
920.6	0.9713
920.8	0.9692
921.0	0.97145
921.2	0.97223
921.4	0.97106
921.6	0.96572
921.8	0.96527
922.0	0.9701
922.2	0.96755
922.4	0.97022
922.6	0.97174
922.8	0.97085
923.0	0.96965
923.2	0.96662
923.4	0.96854
923.6	0.96996
923.8	0.96678
924.0	0.96627
924.2	0.96737
924.4	0.96702
924.6	0.96869
924.8	0.96647
925.0	0.96604
925.2	0.9659
925.4	0.96703
925.6	0.96727
925.8	0.9636
926.0	0.96311
926.2	0.96455
926.4	0.96488
926.6	0.96226
926.8	0.95918
927.0	0.96416
927.2	0.96835
927.4	0.97097
927.6	0.9713
927.8	0.96956
928.0	0.96861
928.2	0.97032
928.4	0.9689
928.6	0.96549
928.8	0.97009
929.0	0.97091
929.2	0.9728
929.4	0.97597
929.6	0.97768
929.8	0.97691
930.0	0.9756
930.2	0.97519
930.4	0.97212
930.6	0.97192
930.8	0.97069
931.0	0.96945
931.2	0.97407
931.4	0.97731
931.6	0.97253
931.8	0.96695
932.0	0.96882
932.2	0.97144
932.4	0.97065
932.6	0.97342
932.8	0.97465
933.0	0.9728
933.2	0.96977
933.4	0.96744
933.6	0.96458
933.8	0.96689
934.0	0.96699
934.2	0.96719
934.4	0.96436
934.6	0.96554
934.8	0.96881
935.0	0.96748
935.2	0.97044
935.4	0.96871
935.6	0.96776
935.8	0.96966
936.0	0.96747
936.2	0.96678
936.4	0.96831
936.6	0.97403
936.8	0.97065
937.0	0.96799
937.2	0.9701
937.4	0.96888
937.6	0.96662
937.8	0.96582
938.0	0.96741
938.2	0.97055
938.4	0.97392
938.6	0.97612
938.8	0.97826
939.0	0.98504
939.2	0.98471
939.4	0.97692
939.6	0.97579
939.8	0.97588
940.0	0.97878
940.2	0.97831
940.4	0.97948
940.6	0.97832
940.8	0.97949
941.0	0.98089
941.2	0.97801
941.4	0.97574
941.6	0.97312
941.8	0.96859
942.0	0.96798
942.2	0.96933
942.4	0.97034
942.6	0.96995
942.8	0.96848
943.0	0.96584
943.2	0.96538
943.4	0.96664
943.6	0.96484
943.8	0.96643
944.0	0.96665
944.2	0.97154
944.4	0.97514
944.6	0.97357
944.8	0.9734
945.0	0.97237
945.2	0.97081
945.4	0.97092
945.6	0.97552
945.8	0.977
946.0	0.97905
946.2	0.9814
946.4	0.97976
946.6	0.97408
946.8	0.97454
947.0	0.97667
947.2	0.98269
947.4	0.97567
947.6	0.97059
947.8	0.97099
948.0	0.97482
948.2	0.97879
948.4	0.97745
948.6	0.97487
948.8	0.97517
949.0	0.9734
949.2	0.9774
949.4	0.97959
949.6	0.97838
949.8	0.97425
950.0	0.97202
950.2	0.97328
950.4	0.97296
950.6	0.97029
950.8	0.96767
951.0	0.97034
951.2	0.97271
951.4	0.97162
951.6	0.97245
951.8	0.97249
952.0	0.96313
952.2	0.96434
952.4	0.96468
952.6	0.96197
952.8	0.96283
953.0	0.96633
953.2	0.96784
953.4	0.96721
953.6	0.96766
953.8	0.96899
954.0	0.96855
954.2	0.96131
954.4	0.961
954.6	0.96683
954.8	0.96657
955.0	0.96569
955.2	0.96472
955.4	0.96883
955.6	0.97205
955.8	0.97023
956.0	0.96797
956.2	0.96928
956.4	0.9671
956.6	0.96929
956.8	0.97429
957.0	0.97643
957.2	0.97473
957.4	0.9755
957.6	0.97319
957.8	0.97259
958.0	0.97328
958.2	0.97328
958.4	0.97193
958.6	0.97333
958.8	0.97134
959.0	0.97298
959.2	0.97269
959.4	0.97122
959.6	0.96726
959.8	0.96208
960.0	0.96223
960.2	0.96417
960.4	0.96324
960.6	0.96291
960.8	0.96438
961.0	0.96345
961.2	0.96374
961.4	0.97044
961.6	0.9733
961.8	0.97117
962.0	0.96099
962.2	0.95873
962.4	0.95498
962.6	0.95959
962.8	0.96031
963.0	0.95826
963.2	0.95954
963.4	0.9627
963.6	0.9653
963.8	0.96488
964.0	0.96515
964.2	0.96705
964.4	0.96773
964.6	0.96755
964.8	0.96934
965.0	0.97252
965.2	0.97029
965.4	0.96771
965.6	0.96797
965.8	0.96778
966.0	0.96604
966.2	0.96465
966.4	0.96349
966.6	0.96646
966.8	0.96484
967.0	0.96723
967.2	0.97699
967.4	0.97397
967.6	0.96991
967.8	0.96659
968.0	0.96488
968.2	0.97064
968.4	0.97055
968.6	0.96892
968.8	0.96878
969.0	0.97128
969.2	0.96833
969.4	0.97151
969.6	0.96747
969.8	0.965
970.0	0.96809
970.2	0.96968
970.4	0.96925
970.6	0.96657
970.8	0.96923
971.0	0.96648
971.2	0.96809
971.4	0.97255
971.6	0.97095
971.8	0.96841
972.0	0.96212
972.2	0.95343
972.4	0.9552
972.6	0.96383
972.8	0.96995
973.0	0.97218
973.2	0.97636
973.4	0.97339
973.6	0.97678
973.8	0.97207
974.0	0.96401
974.2	0.96178
974.4	0.95877
974.6	0.96234
974.8	0.96669
975.0	0.97029
975.2	0.96782
975.4	0.96504
975.6	0.96679
975.8	0.97146
976.0	0.96934
976.2	0.96699
976.4	0.96569
976.6	0.96634
976.8	0.96698
977.0	0.96201
977.2	0.96263
977.4	0.96386
977.6	0.96749
977.8	0.96414
978.0	0.96217
978.2	0.96455
978.4	0.96413
978.6	0.96289
978.8	0.96124
979.0	0.96479
979.2	0.96893
979.4	0.96875
979.6	0.96641
979.8	0.96175
980.0	0.96081
980.2	0.96134
980.4	0.96384
980.6	0.96651
980.8	0.96423
981.0	0.96402
981.2	0.96591
981.4	0.9624
981.6	0.96437
981.8	0.96286
982.0	0.95745
982.2	0.96141
982.4	0.96561
982.6	0.96079
982.8	0.95985
983.0	0.96517
983.2	0.97239
983.4	0.96895
983.6	0.96762
983.8	0.96379
984.0	0.96831
984.2	0.97035
984.4	0.97049
984.6	0.97066
984.8	0.9699
985.0	0.96536
985.2	0.96575
985.4	0.97201
985.6	0.97038
985.8	0.9682
986.0	0.97003
986.2	0.97245
986.4	0.97155
986.6	0.96846
986.8	0.9697
987.0	0.97499
987.2	0.97681
987.4	0.97728
987.6	0.97671
987.8	0.97039
988.0	0.96355
988.2	0.96174
988.4	0.96297
988.6	0.96404
988.8	0.96322
989.0	0.96905
989.2	0.96996
989.4	0.96494
989.6	0.96195
989.8	0.9639
990.0	0.96289
990.2	0.96074
990.4	0.95938
990.6	0.96229
990.8	0.96193
991.0	0.96402
991.2	0.96448
991.4	0.96506
991.6	0.96695
991.8	0.96346
992.0	0.96521
992.2	0.96213
992.4	0.95932
992.6	0.96234
992.8	0.96369
993.0	0.96761
993.2	0.96969
993.4	0.96741
993.6	0.96492
993.8	0.96544
994.0	0.96112
994.2	0.96081
994.4	0.96444
994.6	0.96746
994.8	0.96568
995.0	0.96562
995.2	0.96236
995.4	0.96128
995.6	0.96085
995.8	0.9607
996.0	0.96148
996.2	0.96528
996.4	0.96857
996.6	0.96833
996.8	0.96659
997.0	0.96694
997.2	0.962
997.4	0.95918
997.6	0.95822
997.8	0.96055
998.0	0.96479
998.2	0.96265
998.4	0.95795
998.6	0.95571
998.8	0.95618
999.0	0.95208
999.2	0.95094
999.4	0.95274
999.6	0.95399
999.8	0.95181
1000.0	0.95492
1000.2	0.9562
1000.4	0.95651
1000.6	0.95346
1000.8	0.95049
1001.0	0.95388
1001.2	0.95543
1001.4	0.95351
1001.6	0.95743
1001.8	0.96208
1002.0	0.96169
1002.2	0.96194
1002.4	0.95842
1002.6	0.95957
1002.8	0.96249
1003.0	0.96196
1003.2	0.961
1003.4	0.96252
1003.6	0.96187
1003.8	0.96307
1004.0	0.96375
1004.2	0.96107
1004.4	0.96331
1004.6	0.9634
1004.8	0.95821
1005.0	0.96137
1005.2	0.96826
1005.4	0.97063
1005.6	0.97082
1005.8	0.96913
1006.0	0.96879
1006.2	0.96312
1006.4	0.96074
1006.6	0.9648
1006.8	0.96774
1007.0	0.97006
1007.2	0.96625
1007.4	0.96574
1007.6	0.96643
1007.8	0.9663
1008.0	0.9641
1008.2	0.9626
1008.4	0.96253
1008.6	0.96573
1008.8	0.96883
1009.0	0.96863
1009.2	0.96366
1009.4	0.96135
1009.6	0.9632
1009.8	0.96283
1010.0	0.96348
1010.2	0.96068
1010.4	0.95917
1010.6	0.95955
1010.8	0.95944
1011.0	0.96294
1011.2	0.96085
1011.4	0.96506
1011.6	0.96568
1011.8	0.96529
1012.0	0.96491
1012.2	0.96464
1012.4	0.96176
1012.6	0.96346
1012.8	0.96471
1013.0	0.96172
1013.2	0.96317
1013.4	0.96611
1013.6	0.96313
1013.8	0.95697
1014.0	0.9583
1014.2	0.96195
1014.4	0.9654
1014.6	0.96621
1014.8	0.96649
1015.0	0.96814
1015.2	0.9647
1015.4	0.96201
1015.6	0.96323
1015.8	0.96555
1016.0	0.96966
1016.2	0.97197
1016.4	0.97311
1016.6	0.97158
1016.8	0.97043
1017.0	0.96753
1017.2	0.96224
1017.4	0.9642
1017.6	0.97266
1017.8	0.97116
1018.0	0.96719
1018.2	0.96679
1018.4	0.96631
1018.6	0.96272
1018.8	0.96196
1019.0	0.96666
1019.2	0.96883
1019.4	0.96456
1019.6	0.96796
1019.8	0.96453
1020.0	0.96406
1020.2	0.95911
1020.4	0.95663
1020.6	0.9593
1020.8	0.96137
1021.0	0.96336
1021.2	0.96399
1021.4	0.966
1021.6	0.96273
1021.8	0.9639
1022.0	0.9647
1022.2	0.96251
1022.4	0.9616
1022.6	0.96127
1022.8	0.9621
1023.0	0.9623
1023.2	0.96594
1023.4	0.96363
1023.6	0.9664
1023.8	0.96759
1024.0	0.96836
1024.2	0.97411
1024.4	0.96506
1024.6	0.96059
1024.8	0.95905
1025.0	0.95889
1025.2	0.96092
1025.4	0.95828
1025.6	0.9599
1025.8	0.96069
1026.0	0.96416
1026.2	0.96765
1026.4	0.96873
1026.6	0.96516
1026.8	0.96962
1027.0	0.97075
1027.2	0.96843
1027.4	0.96485
1027.6	0.96497
1027.8	0.97062
1028.0	0.97517
1028.2	0.97688
1028.4	0.96827
1028.6	0.96524
1028.8	0.96787
1029.0	0.97077
1029.2	0.96997
1029.4	0.97083
1029.6	0.9682
1029.8	0.96694
1030.0	0.9645
1030.2	0.96533
1030.4	0.96785
1030.6	0.9703
1030.8	0.97052
1031.0	0.96762
1031.2	0.9607
1031.4	0.9593
1031.6	0.96472
1031.8	0.96893
1032.0	0.97028
1032.2	0.9722
1032.4	0.96947
1032.6	0.96468
1032.8	0.96715
1033.0	0.96707
1033.2	0.96649
1033.4	0.96797
1033.6	0.9639
1033.8	0.96552
1034.0	0.96979
1034.2	0.96594
1034.4	0.97061
1034.6	0.96942
1034.8	0.96661
1035.0	0.96476
1035.2	0.96588
1035.4	0.9678
1035.6	0.96569
1035.8	0.96397
1036.0	0.9616
1036.2	0.96507
1036.4	0.9645
1036.6	0.96332
1036.8	0.96442
1037.0	0.96183
1037.2	0.96227
1037.4	0.96598
1037.6	0.9712
1037.8	0.97634
1038.0	0.96994
1038.2	0.9689
1038.4	0.97088
1038.6	0.97535
1038.8	0.9743
1039.0	0.97188
1039.2	0.96795
1039.4	0.96787
1039.6	0.96422
1039.8	0.95936
1040.0	0.95812
1040.2	0.95646
1040.4	0.95583
1040.6	0.9598
1040.8	0.96013
1041.0	0.96244
1041.2	0.96175
1041.4	0.96205
1041.6	0.96319
1041.8	0.96271
1042.0	0.96492
1042.2	0.96289
1042.4	0.95928
1042.6	0.96134
1042.8	0.96033
1043.0	0.95918
1043.2	0.95666
1043.4	0.95451
1043.6	0.95502
1043.8	0.95564
1044.0	0.95939
1044.2	0.96061
1044.4	0.95976
1044.6	0.96094
1044.8	0.96471
1045.0	0.96522
1045.2	0.96546
1045.4	0.96667
1045.6	0.9584
1045.8	0.95604
1046.0	0.95526
1046.2	0.9605
1046.4	0.97035
1046.6	0.97115
1046.8	0.97186
1047.0	0.97076
1047.2	0.96889
1047.4	0.964
1047.6	0.96088
1047.8	0.96611
1048.0	0.9688
1048.2	0.96675
1048.4	0.9677
1048.6	0.96634
1048.8	0.9631
1049.0	0.96001
1049.2	0.96209
1049.4	0.96425
1049.6	0.96207
1049.8	0.96025
1050.0	0.96339
1050.2	0.96665
1050.4	0.96758
1050.6	0.96331
1050.8	0.95863
1051.0	0.95882
1051.2	0.95469
1051.4	0.95241
1051.6	0.95759
1051.8	0.96109
1052.0	0.96182
1052.2	0.96541
1052.4	0.96407
1052.6	0.96225
1052.8	0.9557
1053.0	0.95942
1053.2	0.95951
1053.4	0.96076
1053.6	0.96141
1053.8	0.96297
1054.0	0.96551
1054.2	0.96793
1054.4	0.96595
1054.6	0.96301
1054.8	0.96056
1055.0	0.95884
1055.2	0.95661
1055.4	0.95523
1055.6	0.96097
1055.8	0.96477
1056.0	0.96674
1056.2	0.96448
1056.4	0.96656
1056.6	0.96408
1056.8	0.96628
1057.0	0.9624
1057.2	0.96414
1057.4	0.96427
1057.6	0.96437
1057.8	0.96779
1058.0	0.9698
1058.2	0.97056
1058.4	0.97015
1058.6	0.97114
1058.8	0.96824
1059.0	0.96874
1059.2	0.96841
1059.4	0.9698
1059.6	0.96817
1059.8	0.97245
1060.0	0.97634
1060.2	0.97664
1060.4	0.97308
1060.6	0.97088
1060.8	0.96618
1061.0	0.96702
1061.2	0.96696
1061.4	0.96835
1061.6	0.96701
1061.8	0.96454
1062.0	0.96551
1062.2	0.96805
1062.4	0.96932
1062.6	0.96986
1062.8	0.96831
1063.0	0.97209
1063.2	0.97017
1063.4	0.96533
1063.6	0.96465
1063.8	0.96568
1064.0	0.96237
1064.2	0.95912
1064.4	0.96
1064.6	0.96189
1064.8	0.96222
1065.0	0.95934
1065.2	0.96248
1065.4	0.95763
1065.6	0.95919
1065.8	0.95712
1066.0	0.95435
1066.2	0.95933
1066.4	0.95778
1066.6	0.95553
1066.8	0.95954
1067.0	0.96695
1067.2	0.97383
1067.4	0.97089
1067.6	0.96404
1067.8	0.96005
1068.0	0.96159
1068.2	0.9594
1068.4	0.96112
1068.6	0.9605
1068.8	0.96959
1069.0	0.97307
1069.2	0.96851
1069.4	0.9667
1069.6	0.96376
1069.8	0.96572
1070.0	0.9674
1070.2	0.97173
1070.4	0.97033
1070.6	0.97287
1070.8	0.97243
1071.0	0.97329
1071.2	0.97554
1071.4	0.97135
1071.6	0.96762
1071.8	0.96628
1072.0	0.96657
1072.2	0.96684
1072.4	0.9632
1072.6	0.96556
1072.8	0.96183
1073.0	0.96457
1073.2	0.96591
1073.4	0.96435
1073.6	0.96554
1073.8	0.96767
1074.0	0.96746
1074.2	0.96333
1074.4	0.96066
1074.6	0.96532
1074.8	0.96815
1075.0	0.96563
1075.2	0.96315
1075.4	0.96479
1075.6	0.95994
1075.8	0.95688
1076.0	0.96043
1076.2	0.9602
1076.4	0.962
1076.6	0.96464
1076.8	0.96752
1077.0	0.96759
1077.2	0.96532
1077.4	0.96512
1077.6	0.96271
1077.8	0.96341
1078.0	0.96613
1078.2	0.96583
1078.4	0.96655
1078.6	0.97015
1078.8	0.96777
1079.0	0.96912
1079.2	0.96606
1079.4	0.97046
1079.6	0.97459
1079.8	0.97283
1080.0	0.96879
1080.2	0.96708
1080.4	0.96495
1080.6	0.96739
1080.8	0.97591
1081.0	0.97403
1081.2	0.97554
1081.4	0.9708
1081.6	0.97196
1081.8	0.9695
1082.0	0.96725
1082.2	0.97057
1082.4	0.97163
1082.6	0.96775
1082.8	0.96858
1083.0	0.96902
1083.2	0.97257
1083.4	0.97534
1083.6	0.97654
1083.8	0.97182
1084.0	0.974
1084.2	0.97025
1084.4	0.969
1084.6	0.96603
1084.8	0.96488
1085.0	0.966
1085.2	0.96371
1085.4	0.95821
1085.6	0.96375
1085.8	0.95935
1086.0	0.9568
1086.2	0.96073
1086.4	0.96309
1086.6	0.96031
1086.8	0.96048
1087.0	0.9637
1087.2	0.95971
1087.4	0.96091
1087.6	0.95971
1087.8	0.96131
1088.0	0.96524
1088.2	0.96931
1088.4	0.96488
1088.6	0.96653
1088.8	0.96346
1089.0	0.95741
1089.2	0.95591
1089.4	0.95392
1089.6	0.96044
1089.8	0.96604
1090.0	0.96791
1090.2	0.96003
1090.4	0.95884
1090.6	0.96258
1090.8	0.96034
1091.0	0.96057
1091.2	0.96259
1091.4	0.96226
1091.6	0.96517
1091.8	0.96194
1092.0	0.95994
1092.2	0.95844
1092.4	0.96656
1092.6	0.96758
1092.8	0.96378
1093.0	0.9602
1093.2	0.95817
1093.4	0.95653
1093.6	0.96207
1093.8	0.96136
1094.0	0.96488
1094.2	0.96601
1094.4	0.96623
1094.6	0.96741
1094.8	0.96922
1095.0	0.97087
1095.2	0.96879
1095.4	0.9664
1095.6	0.96896
1095.8	0.96651
1096.0	0.96703
1096.2	0.96496
1096.4	0.96896
1096.6	0.97011
1096.8	0.9673
1097.0	0.96633
1097.2	0.96583
1097.4	0.969
1097.6	0.97137
1097.8	0.96734
1098.0	0.9629
1098.2	0.96204
1098.4	0.96095
1098.6	0.96225
1098.8	0.96698
1099.0	0.96369
1099.2	0.96854
1099.4	0.9641
1099.6	0.96847
1099.8	0.96272
1100.0	0.96497
1100.2	0.95983
1100.4	0.95728
1100.6	0.95505
1100.8	0.95745
1101.0	0.95455
1101.2	0.96025
1101.4	0.96096
1101.6	0.96034
1101.8	0.96116
1102.0	0.95903
1102.2	0.95808
1102.4	0.9603
1102.6	0.96693
1102.8	0.96566
1103.0	0.96308
1103.2	0.95505
1103.4	0.96146
1103.6	0.95958
1103.8	0.95731
1104.0	0.96014
1104.2	0.96068
1104.4	0.9625
1104.6	0.96181
1104.8	0.95784
1105.0	0.9656
1105.2	0.96995
1105.4	0.96733
1105.6	0.96729
1105.8	0.9642
1106.0	0.97021
1106.2	0.97066
1106.4	0.96345
1106.6	0.96871
1106.8	0.97122
1107.0	0.97193
1107.2	0.97112
1107.4	0.97409
1107.6	0.96642
1107.8	0.95852
1108.0	0.95768
1108.2	0.9546
1108.4	0.96084
1108.6	0.96822
1108.8	0.96022
1109.0	0.95994
1109.2	0.96586
1109.4	0.96429
1109.6	0.95959
1109.8	0.95837
1110.0	0.96189
1110.2	0.96258
1110.4	0.96214
1110.6	0.96561
1110.8	0.96744
1111.0	0.96493
1111.2	0.95708
1111.4	0.95845
1111.6	0.9632
1111.8	0.95982
1112.0	0.95674
1112.2	0.95783
1112.4	0.95465
1112.6	0.94828
1112.8	0.94861
1113.0	0.94821
1113.2	0.94756
1113.4	0.94895
1113.6	0.94918
1113.8	0.96079
1114.0	0.9655
1114.2	0.96406
1114.4	0.96365
1114.6	0.96054
1114.8	0.9592
1115.0	0.96236
1115.2	0.95621
1115.4	0.96186
1115.6	0.95431
1115.8	0.95856
1116.0	0.96332
1116.2	0.96193
1116.4	0.95481
1116.6	0.95735
1116.8	0.9632
1117.0	0.95982
1117.2	0.96924
1117.4	0.97211
1117.6	0.97231
1117.8	0.96831
1118.0	0.96886
1118.2	0.97228
1118.4	0.9763
1118.6	0.97204
1118.8	0.97048
1119.0	0.97567
1119.2	0.97487
1119.4	0.97791
1119.6	0.97557
1119.8	0.97548
1120.0	0.97202
1120.2	0.96909
1120.4	0.97655
1120.6	0.96735
1120.8	0.97125
1121.0	0.96824
1121.2	0.97289
1121.4	0.95908
1121.6	0.9614
1121.8	0.9603
1122.0	0.96879
1122.2	0.96289
1122.4	0.96727
1122.6	0.96444
1122.8	0.96005
1123.0	0.96631
1123.2	0.96696
1123.4	0.97116
1123.6	0.97106
1123.8	0.96824
1124.0	0.96987
1124.2	0.96034
1124.4	0.96672
1124.6	0.95925
1124.8	0.96174
1125.0	0.95518
1125.2	0.95528
1125.4	0.95538
1125.6	0.95548
1125.8	0.95558
1126.0	0.95568
1126.2	0.95578
1126.4	0.95588
1126.6	0.95598
1126.8	0.95608
1127.0	0.95617
1127.2	0.95627
1127.4	0.95637
1127.6	0.95647
1127.8	0.95657
1128.0	0.95667
1128.2	0.95677
1128.4	0.95687
1128.6	0.95697
1128.8	0.95707
1129.0	0.95717
1129.2	0.95727
1129.4	0.95737
1129.6	0.95747
1129.8	0.95757
1130.0	0.95767
1130.2	0.95768
1130.4	0.95769
1130.6	0.9577
1130.8	0.95771
1131.0	0.95772
1131.2	0.95773
1131.4	0.95774
1131.6	0.95775
1131.8	0.95777
1132.0	0.95778
1132.2	0.95779
1132.4	0.9578
1132.6	0.95781
1132.8	0.95782
1133.0	0.95783
1133.2	0.95784
1133.4	0.95785
1133.6	0.95786
1133.8	0.95787
1134.0	0.95788
1134.2	0.95789
1134.4	0.95791
1134.6	0.95792
1134.8	0.95793
1135.0	0.95794
1135.2	0.95768
1135.4	0.95741
1135.6	0.95715
1135.8	0.95689
1136.0	0.95663
1136.2	0.95636
1136.4	0.9561
1136.6	0.95584
1136.8	0.95558
1137.0	0.95531
1137.2	0.95505
1137.4	0.95479
1137.6	0.95453
1137.8	0.95426
1138.0	0.954
1138.2	0.95374
1138.4	0.95348
1138.6	0.95321
1138.8	0.95295
1139.0	0.95269
1139.2	0.95243
1139.4	0.95216
1139.6	0.9519
1139.8	0.95164
1140.0	0.95138
1140.2	0.95151
1140.4	0.95165
1140.6	0.95178
1140.8	0.95192
1141.0	0.95205
1141.2	0.95219
1141.4	0.95232
1141.6	0.95246
1141.8	0.9526
1142.0	0.95273
1142.2	0.95287
1142.4	0.953
1142.6	0.95314
1142.8	0.95327
1143.0	0.95341
1143.2	0.95354
1143.4	0.95368
1143.6	0.95381
1143.8	0.95395
1144.0	0.95409
1144.2	0.95422
1144.4	0.95436
1144.6	0.95449
1144.8	0.95463
1145.0	0.95476
1145.2	0.95481
1145.4	0.95486
1145.6	0.95491
1145.8	0.95496
1146.0	0.95501
1146.2	0.95506
1146.4	0.95511
1146.6	0.95516
1146.8	0.9552
1147.0	0.95525
1147.2	0.9553
1147.4	0.95535
1147.6	0.9554
1147.8	0.95545
1148.0	0.9555
1148.2	0.95555
1148.4	0.9556
1148.6	0.95565
1148.8	0.95569
1149.0	0.95574
1149.2	0.95579
1149.4	0.95584
1149.6	0.95589
1149.8	0.95594
1150.0	0.95599
1150.2	0.95584
1150.4	0.9557
1150.6	0.95555
1150.8	0.95541
1151.0	0.95526
1151.2	0.95511
1151.4	0.95497
1151.6	0.95482
1151.8	0.95468
1152.0	0.95453
1152.2	0.95438
1152.4	0.95424
1152.6	0.95409
1152.8	0.95395
1153.0	0.9538
1153.2	0.95366
1153.4	0.95351
1153.6	0.95336
1153.8	0.95322
1154.0	0.95307
1154.2	0.95293
1154.4	0.95278
1154.6	0.95263
1154.8	0.95249
1155.0	0.95234
1155.2	0.95265
1155.4	0.95296
1155.6	0.95327
1155.8	0.95357
1156.0	0.95388
1156.2	0.95419
1156.4	0.9545
1156.6	0.9548
1156.8	0.95511
1157.0	0.95542
1157.2	0.95573
1157.4	0.95603
1157.6	0.95634
1157.8	0.95665
1158.0	0.95696
1158.2	0.95726
1158.4	0.95757
1158.6	0.95788
1158.8	0.95819
1159.0	0.95849
1159.2	0.9588
1159.4	0.95911
1159.6	0.95942
1159.8	0.95973
1160.0	0.96003
1160.2	0.95987
1160.4	0.95971
1160.6	0.95954
1160.8	0.95938
1161.0	0.95922
1161.2	0.95906
1161.4	0.95889
1161.6	0.95873
1161.8	0.95857
1162.0	0.95841
1162.2	0.95824
1162.4	0.95808
1162.6	0.95792
1162.8	0.95775
1163.0	0.95759
1163.2	0.95743
1163.4	0.95727
1163.6	0.9571
1163.8	0.95694
1164.0	0.95678
1164.2	0.95662
1164.4	0.95645
1164.6	0.95629
1164.8	0.95613
1165.0	0.95597
1165.2	0.95591
1165.4	0.95586
1165.6	0.9558
1165.8	0.95575
1166.0	0.9557
1166.2	0.95564
1166.4	0.95559
1166.6	0.95553
1166.8	0.95548
1167.0	0.95543
1167.2	0.95537
1167.4	0.95532
1167.6	0.95526
1167.8	0.95521
1168.0	0.95516
1168.2	0.9551
1168.4	0.95505
1168.6	0.95499
1168.8	0.95494
1169.0	0.95489
1169.2	0.95483
1169.4	0.95478
1169.6	0.95472
1169.8	0.95467
1170.0	0.95462
1170.2	0.95468
1170.4	0.95474
1170.6	0.9548
1170.8	0.95486
1171.0	0.95492
1171.2	0.95498
1171.4	0.95504
1171.6	0.9551
1171.8	0.95517
1172.0	0.95523
1172.2	0.95529
1172.4	0.95535
1172.6	0.95541
1172.8	0.95547
1173.0	0.95553
1173.2	0.95559
1173.4	0.95565
1173.6	0.95572
1173.8	0.95578
1174.0	0.95584
1174.2	0.9559
1174.4	0.95596
1174.6	0.95602
1174.8	0.95608
1175.0	0.95614
1175.2	0.95649
1175.4	0.95684
1175.6	0.95719
1175.8	0.95754
1176.0	0.95789
1176.2	0.95824
1176.4	0.95859
1176.6	0.95894
1176.8	0.95929
1177.0	0.95964
1177.2	0.95999
1177.4	0.96034
1177.6	0.96069
1177.8	0.96104
1178.0	0.96139
1178.2	0.96174
1178.4	0.96209
1178.6	0.96244
1178.8	0.96279
1179.0	0.96314
1179.2	0.96349
1179.4	0.96384
1179.6	0.96419
1179.8	0.96454
1180.0	0.96489
1180.2	0.9649
1180.4	0.9649
1180.6	0.96491
1180.8	0.96492
1181.0	0.96493
1181.2	0.96494
1181.4	0.96495
1181.6	0.96495
1181.8	0.96496
1182.0	0.96497
1182.2	0.96498
1182.4	0.96499
1182.6	0.965
1182.8	0.965
1183.0	0.96501
1183.2	0.96502
1183.4	0.96503
1183.6	0.96504
1183.8	0.96505
1184.0	0.96505
1184.2	0.96506
1184.4	0.96507
1184.6	0.96508
1184.8	0.96509
1185.0	0.9651
1185.2	0.96496
1185.4	0.96482
1185.6	0.96469
1185.8	0.96455
1186.0	0.96441
1186.2	0.96428
1186.4	0.96414
1186.6	0.96401
1186.8	0.96387
1187.0	0.96373
1187.2	0.9636
1187.4	0.96346
1187.6	0.96333
1187.8	0.96319
1188.0	0.96305
1188.2	0.96292
1188.4	0.96278
1188.6	0.96264
1188.8	0.96251
1189.0	0.96237
1189.2	0.96224
1189.4	0.9621
1189.6	0.96196
1189.8	0.96183
1190.0	0.96169
1190.2	0.96151
1190.4	0.96132
1190.6	0.96113
1190.8	0.96095
1191.0	0.96076
1191.2	0.96057
1191.4	0.96039
1191.6	0.9602
1191.8	0.96002
1192.0	0.95983
1192.2	0.95964
1192.4	0.95946
1192.6	0.95927
1192.8	0.95908
1193.0	0.9589
1193.2	0.95871
1193.4	0.95853
1193.6	0.95834
1193.8	0.95815
1194.0	0.95797
1194.2	0.95778
1194.4	0.95759
1194.6	0.95741
1194.8	0.95722
1195.0	0.95703
1195.2	0.95713
1195.4	0.95722
1195.6	0.95731
1195.8	0.9574
1196.0	0.95749
1196.2	0.95758
1196.4	0.95767
1196.6	0.95776
1196.8	0.95785
1197.0	0.95794
1197.2	0.95803
1197.4	0.95813
1197.6	0.95822
1197.8	0.95831
1198.0	0.9584
1198.2	0.95849
1198.4	0.95858
1198.6	0.95867
1198.8	0.95876
1199.0	0.95885
1199.2	0.95894
1199.4	0.95903
1199.6	0.95912
1199.8	0.95922
1200.0	0.95931
1200.2	0.95922
1200.4	0.95913
1200.6	0.95904
1200.8	0.95895
1201.0	0.95886
1201.2	0.95877
1201.4	0.95868
1201.6	0.95859
1201.8	0.9585
1202.0	0.95841
1202.2	0.95832
1202.4	0.95823
1202.6	0.95814
1202.8	0.95805
1203.0	0.95796
1203.2	0.95787
1203.4	0.95778
1203.6	0.95769
1203.8	0.9576
1204.0	0.95751
1204.2	0.95742
1204.4	0.95733
1204.6	0.95724
1204.8	0.95715
1205.0	0.95706
1205.2	0.95683
1205.4	0.95661
1205.6	0.95638
1205.8	0.95616
1206.0	0.95593
1206.2	0.95571
1206.4	0.95548
1206.6	0.95526
1206.8	0.95503
1207.0	0.95481
1207.2	0.95458
1207.4	0.95436
1207.6	0.95413
1207.8	0.95391
1208.0	0.95368
1208.2	0.95346
1208.4	0.95323
1208.6	0.95301
1208.8	0.95278
1209.0	0.95256
1209.2	0.95233
1209.4	0.95211
1209.6	0.95188
1209.8	0.95166
1210.0	0.95143
1210.2	0.9516
1210.4	0.95176
1210.6	0.95193
1210.8	0.95209
1211.0	0.95226
1211.2	0.95242
1211.4	0.95259
1211.6	0.95275
1211.8	0.95292
1212.0	0.95308
1212.2	0.95325
1212.4	0.95341
1212.6	0.95358
1212.8	0.95374
1213.0	0.95391
1213.2	0.95407
1213.4	0.95424
1213.6	0.9544
1213.8	0.95456
1214.0	0.95473
1214.2	0.95489
1214.4	0.95506
1214.6	0.95522
1214.8	0.95539
1215.0	0.95555
1215.2	0.95562
1215.4	0.95569
1215.6	0.95576
1215.8	0.95583
1216.0	0.9559
1216.2	0.95597
1216.4	0.95604
1216.6	0.95611
1216.8	0.95618
1217.0	0.95625
1217.2	0.95632
1217.4	0.95639
1217.6	0.95646
1217.8	0.95653
1218.0	0.9566
1218.2	0.95667
1218.4	0.95674
1218.6	0.95681
1218.8	0.95688
1219.0	0.95694
1219.2	0.95701
1219.4	0.95708
1219.6	0.95715
1219.8	0.95722
1220.0	0.95729
1220.2	0.95713
1220.4	0.95696
1220.6	0.95679
1220.8	0.95662
1221.0	0.95646
1221.2	0.95629
1221.4	0.95612
1221.6	0.95595
1221.8	0.95579
1222.0	0.95562
1222.2	0.95545
1222.4	0.95528
1222.6	0.95512
1222.8	0.95495
1223.0	0.95478
1223.2	0.95461
1223.4	0.95445
1223.6	0.95428
1223.8	0.95411
1224.0	0.95394
1224.2	0.95378
1224.4	0.95361
1224.6	0.95344
1224.8	0.95327
1225.0	0.95311
1225.2	0.95335
1225.4	0.95359
1225.6	0.95383
1225.8	0.95407
1226.0	0.95432
1226.2	0.95456
1226.4	0.9548
1226.6	0.95504
1226.8	0.95528
1227.0	0.95553
1227.2	0.95577
1227.4	0.95601
1227.6	0.95625
1227.8	0.95649
1228.0	0.95674
1228.2	0.95698
1228.4	0.95722
1228.6	0.95746
1228.8	0.9577
1229.0	0.95794
1229.2	0.95819
1229.4	0.95843
1229.6	0.95867
1229.8	0.95891
1230.0	0.95915
1230.2	0.95916
1230.4	0.95916
1230.6	0.95916
1230.8	0.95916
1231.0	0.95917
1231.2	0.95917
1231.4	0.95917
1231.6	0.95917
1231.8	0.95917
1232.0	0.95918
1232.2	0.95918
1232.4	0.95918
1232.6	0.95918
1232.8	0.95919
1233.0	0.95919
1233.2	0.95919
1233.4	0.95919
1233.6	0.95919
1233.8	0.9592
1234.0	0.9592
1234.2	0.9592
1234.4	0.9592
1234.6	0.95921
1234.8	0.95921
1235.0	0.95921
1235.2	0.95918
1235.4	0.95914
1235.6	0.95911
1235.8	0.95907
1236.0	0.95904
1236.2	0.95901
1236.4	0.95897
1236.6	0.95894
1236.8	0.9589
1237.0	0.95887
1237.2	0.95883
1237.4	0.9588
1237.6	0.95877
1237.8	0.95873
1238.0	0.9587
1238.2	0.95866
1238.4	0.95863
1238.6	0.9586
1238.8	0.95856
1239.0	0.95853
1239.2	0.95849
1239.4	0.95846
1239.6	0.95843
1239.8	0.95839
1240.0	0.95836
1240.2	0.95845
1240.4	0.95854
1240.6	0.95864
1240.8	0.95873
1241.0	0.95883
1241.2	0.95892
1241.4	0.95901
1241.6	0.95911
1241.8	0.9592
1242.0	0.9593
1242.2	0.95939
1242.4	0.95948
1242.6	0.95958
1242.8	0.95967
1243.0	0.95976
1243.2	0.95986
1243.4	0.95995
1243.6	0.96005
1243.8	0.96014
1244.0	0.96023
1244.2	0.96033
1244.4	0.96042
1244.6	0.96052
1244.8	0.96061
1245.0	0.9607
1245.2	0.96103
1245.4	0.96136
1245.6	0.96169
1245.8	0.96202
1246.0	0.96235
1246.2	0.96268
1246.4	0.96301
1246.6	0.96334
1246.8	0.96366
1247.0	0.96399
1247.2	0.96432
1247.4	0.96465
1247.6	0.96498
1247.8	0.96531
1248.0	0.96564
1248.2	0.96597
1248.4	0.9663
1248.6	0.96663
1248.8	0.96696
1249.0	0.96729
1249.2	0.96761
1249.4	0.96794
1249.6	0.96827
1249.8	0.9686
1250.0	0.96893
1250.2	0.96863
1250.4	0.96834
1250.6	0.96804
1250.8	0.96774
1251.0	0.96744
1251.2	0.96715
1251.4	0.96685
1251.6	0.96655
1251.8	0.96625
1252.0	0.96596
1252.2	0.96566
1252.4	0.96536
1252.6	0.96507
1252.8	0.96477
1253.0	0.96447
1253.2	0.96417
1253.4	0.96388
1253.6	0.96358
1253.8	0.96328
1254.0	0.96298
1254.2	0.96269
1254.4	0.96239
1254.6	0.96209
1254.8	0.96179
1255.0	0.9615
1255.2	0.96165
1255.4	0.9618
1255.6	0.96195
1255.8	0.9621
1256.0	0.96226
1256.2	0.96241
1256.4	0.96256
1256.6	0.96271
1256.8	0.96286
1257.0	0.96302
1257.2	0.96317
1257.4	0.96332
1257.6	0.96347
1257.8	0.96362
1258.0	0.96378
1258.2	0.96393
1258.4	0.96408
1258.6	0.96423
1258.8	0.96438
1259.0	0.96453
1259.2	0.96469
1259.4	0.96484
1259.6	0.96499
1259.8	0.96514
1260.0	0.96529
1260.2	0.96545
1260.4	0.96561
1260.6	0.96577
1260.8	0.96593
1261.0	0.96609
1261.2	0.96625
1261.4	0.96641
1261.6	0.96657
1261.8	0.96673
1262.0	0.96688
1262.2	0.96704
1262.4	0.9672
1262.6	0.96736
1262.8	0.96752
1263.0	0.96768
1263.2	0.96784
1263.4	0.968
1263.6	0.96816
1263.8	0.96832
1264.0	0.96847
1264.2	0.96863
1264.4	0.96879
1264.6	0.96895
1264.8	0.96911
1265.0	0.96927
1265.2	0.96894
1265.4	0.96861
1265.6	0.96829
1265.8	0.96796
1266.0	0.96763
1266.2	0.9673
1266.4	0.96697
1266.6	0.96665
1266.8	0.96632
1267.0	0.96599
1267.2	0.96566
1267.4	0.96533
1267.6	0.96501
1267.8	0.96468
1268.0	0.96435
1268.2	0.96402
1268.4	0.96369
1268.6	0.96337
1268.8	0.96304
1269.0	0.96271
1269.2	0.96238
1269.4	0.96205
1269.6	0.96173
1269.8	0.9614
1270.0	0.96107
1270.2	0.9608
1270.4	0.96054
1270.6	0.96027
1270.8	0.96
1271.0	0.95974
1271.2	0.95947
1271.4	0.9592
1271.6	0.95894
1271.8	0.95867
1272.0	0.9584
1272.2	0.95814
1272.4	0.95787
1272.6	0.9576
1272.8	0.95734
1273.0	0.95707
1273.2	0.9568
1273.4	0.95654
1273.6	0.95627
1273.8	0.956
1274.0	0.95574
1274.2	0.95547
1274.4	0.9552
1274.6	0.95494
1274.8	0.95467
1275.0	0.9544
1275.2	0.95479
1275.4	0.95519
1275.6	0.95558
1275.8	0.95597
1276.0	0.95636
1276.2	0.95676
1276.4	0.95715
1276.6	0.95754
1276.8	0.95793
1277.0	0.95832
1277.2	0.95872
1277.4	0.95911
1277.6	0.9595
1277.8	0.95989
1278.0	0.96028
1278.2	0.96068
1278.4	0.96107
1278.6	0.96146
1278.8	0.96185
1279.0	0.96225
1279.2	0.96264
1279.4	0.96303
1279.6	0.96342
1279.8	0.96381
1280.0	0.96421
1280.2	0.96362
1280.4	0.96304
1280.6	0.96245
1280.8	0.96187
1281.0	0.96128
1281.2	0.9607
1281.4	0.96012
1281.6	0.95953
1281.8	0.95895
1282.0	0.95836
1282.2	0.95778
1282.4	0.95719
1282.6	0.95661
1282.8	0.95602
1283.0	0.95544
1283.2	0.95486
1283.4	0.95427
1283.6	0.95369
1283.8	0.9531
1284.0	0.95252
1284.2	0.95193
1284.4	0.95135
1284.6	0.95076
1284.8	0.95018
1285.0	0.9496
1285.2	0.94981
1285.4	0.95002
1285.6	0.95023
1285.8	0.95044
1286.0	0.95065
1286.2	0.95086
1286.4	0.95107
1286.6	0.95128
1286.8	0.95149
1287.0	0.9517
1287.2	0.95191
1287.4	0.95212
1287.6	0.95233
1287.8	0.95254
1288.0	0.95276
1288.2	0.95297
1288.4	0.95318
1288.6	0.95339
1288.8	0.9536
1289.0	0.95381
1289.2	0.95402
1289.4	0.95423
1289.6	0.95444
1289.8	0.95465
1290.0	0.95486
1290.2	0.95501
1290.4	0.95515
1290.6	0.9553
1290.8	0.95544
1291.0	0.95559
1291.2	0.95573
1291.4	0.95588
1291.6	0.95602
1291.8	0.95617
1292.0	0.95631
1292.2	0.95645
1292.4	0.9566
1292.6	0.95674
1292.8	0.95689
1293.0	0.95703
1293.2	0.95718
1293.4	0.95732
1293.6	0.95747
1293.8	0.95761
1294.0	0.95776
1294.2	0.9579
1294.4	0.95805
1294.6	0.95819
1294.8	0.95834
1295.0	0.95848
1295.2	0.9585
1295.4	0.95851
1295.6	0.95853
1295.8	0.95855
1296.0	0.95856
1296.2	0.95858
1296.4	0.95859
1296.6	0.95861
1296.8	0.95863
1297.0	0.95864
1297.2	0.95866
1297.4	0.95867
1297.6	0.95869
1297.8	0.95871
1298.0	0.95872
1298.2	0.95874
1298.4	0.95875
1298.6	0.95877
1298.8	0.95879
1299.0	0.9588
1299.2	0.95882
1299.4	0.95883
1299.6	0.95885
1299.8	0.95887
1300.0	0.95888
1300.2	0.95849
1300.4	0.9581
1300.6	0.95771
1300.8	0.95732
1301.0	0.95693
1301.2	0.95654
1301.4	0.95615
1301.6	0.95576
1301.8	0.95537
1302.0	0.95498
1302.2	0.95459
1302.4	0.9542
1302.6	0.95381
1302.8	0.95342
1303.0	0.95303
1303.2	0.95264
1303.4	0.95225
1303.6	0.95186
1303.8	0.95147
1304.0	0.95108
1304.2	0.95069
1304.4	0.9503
1304.6	0.94991
1304.8	0.94952
1305.0	0.94913
1305.2	0.94955
1305.4	0.94997
1305.6	0.9504
1305.8	0.95082
1306.0	0.95124
1306.2	0.95167
1306.4	0.95209
1306.6	0.95251
1306.8	0.95294
1307.0	0.95336
1307.2	0.95378
1307.4	0.95421
1307.6	0.95463
1307.8	0.95505
1308.0	0.95548
1308.2	0.9559
1308.4	0.95632
1308.6	0.95675
1308.8	0.95717
1309.0	0.95759
1309.2	0.95802
1309.4	0.95844
1309.6	0.95886
1309.8	0.95929
1310.0	0.95971
1310.2	0.95969
1310.4	0.95968
1310.6	0.95967
1310.8	0.95965
1311.0	0.95964
1311.2	0.95962
1311.4	0.95961
1311.6	0.9596
1311.8	0.95958
1312.0	0.95957
1312.2	0.95956
1312.4	0.95954
1312.6	0.95953
1312.8	0.95951
1313.0	0.9595
1313.2	0.95949
1313.4	0.95947
1313.6	0.95946
1313.8	0.95944
1314.0	0.95943
1314.2	0.95942
1314.4	0.9594
1314.6	0.95939
1314.8	0.95937
1315.0	0.95936
1315.2	0.95958
1315.4	0.9598
1315.6	0.96002
1315.8	0.96024
1316.0	0.96046
1316.2	0.96068
1316.4	0.96091
1316.6	0.96113
1316.8	0.96135
1317.0	0.96157
1317.2	0.96179
1317.4	0.96201
1317.6	0.96223
1317.8	0.96245
1318.0	0.96267
1318.2	0.96289
1318.4	0.96311
1318.6	0.96333
1318.8	0.96356
1319.0	0.96378
1319.2	0.964
1319.4	0.96422
1319.6	0.96444
1319.8	0.96466
1320.0	0.96488
1320.2	0.96452
1320.4	0.96415
1320.6	0.96379
1320.8	0.96342
1321.0	0.96306
1321.2	0.96269
1321.4	0.96233
1321.6	0.96196
1321.8	0.9616
1322.0	0.96123
1322.2	0.96087
1322.4	0.9605
1322.6	0.96014
1322.8	0.95977
1323.0	0.95941
1323.2	0.95905
1323.4	0.95868
1323.6	0.95832
1323.8	0.95795
1324.0	0.95759
1324.2	0.95722
1324.4	0.95686
1324.6	0.95649
1324.8	0.95613
1325.0	0.95576
1325.2	0.95611
1325.4	0.95646
1325.6	0.95681
1325.8	0.95716
1326.0	0.95751
1326.2	0.95786
1326.4	0.95821
1326.6	0.95856
1326.8	0.95891
1327.0	0.95926
1327.2	0.95961
1327.4	0.95996
1327.6	0.96031
1327.8	0.96066
1328.0	0.96101
1328.2	0.96136
1328.4	0.96171
1328.6	0.96206
1328.8	0.96241
1329.0	0.96276
1329.2	0.96311
1329.4	0.96346
1329.6	0.96381
1329.8	0.96416
1330.0	0.96451
1330.2	0.96462
1330.4	0.96474
1330.6	0.96486
1330.8	0.96498
1331.0	0.96509
1331.2	0.96521
1331.4	0.96533
1331.6	0.96545
1331.8	0.96556
1332.0	0.96568
1332.2	0.9658
1332.4	0.96592
1332.6	0.96603
1332.8	0.96615
1333.0	0.96627
1333.2	0.96639
1333.4	0.9665
1333.6	0.96662
1333.8	0.96674
1334.0	0.96686
1334.2	0.96697
1334.4	0.96709
1334.6	0.96721
1334.8	0.96733
1335.0	0.96744
1335.2	0.96733
1335.4	0.96722
1335.6	0.9671
1335.8	0.96699
1336.0	0.96688
1336.2	0.96676
1336.4	0.96665
1336.6	0.96654
1336.8	0.96642
1337.0	0.96631
1337.2	0.9662
1337.4	0.96608
1337.6	0.96597
1337.8	0.96586
1338.0	0.96574
1338.2	0.96563
1338.4	0.96552
1338.6	0.9654
1338.8	0.96529
1339.0	0.96517
1339.2	0.96506
1339.4	0.96495
1339.6	0.96483
1339.8	0.96472
1340.0	0.96461
1340.2	0.96425
1340.4	0.96389
1340.6	0.96353
1340.8	0.96318
1341.0	0.96282
1341.2	0.96246
1341.4	0.9621
1341.6	0.96175
1341.8	0.96139
1342.0	0.96103
1342.2	0.96067
1342.4	0.96032
1342.6	0.95996
1342.8	0.9596
1343.0	0.95924
1343.2	0.95888
1343.4	0.95853
1343.6	0.95817
1343.8	0.95781
1344.0	0.95745
1344.2	0.9571
1344.4	0.95674
1344.6	0.95638
1344.8	0.95602
1345.0	0.95567
1345.2	0.95619
1345.4	0.95671
1345.6	0.95723
1345.8	0.95775
1346.0	0.95827
1346.2	0.9588
1346.4	0.95932
1346.6	0.95984
1346.8	0.96036
1347.0	0.96088
1347.2	0.96141
1347.4	0.96193
1347.6	0.96245
1347.8	0.96297
1348.0	0.96349
1348.2	0.96401
1348.4	0.96454
1348.6	0.96506
1348.8	0.96558
1349.0	0.9661
1349.2	0.96662
1349.4	0.96714
1349.6	0.96767
1349.8	0.96819
1350.0	0.96871
1350.2	0.96849
1350.4	0.96827
1350.6	0.96805
1350.8	0.96782
1351.0	0.9676
1351.2	0.96738
1351.4	0.96716
1351.6	0.96694
1351.8	0.96672
1352.0	0.9665
1352.2	0.96627
1352.4	0.96605
1352.6	0.96583
1352.8	0.96561
1353.0	0.96539
1353.2	0.96517
1353.4	0.96495
1353.6	0.96472
1353.8	0.9645
1354.0	0.96428
1354.2	0.96406
1354.4	0.96384
1354.6	0.96362
1354.8	0.9634
1355.0	0.96317
1355.2	0.96292
1355.4	0.96267
1355.6	0.96242
1355.8	0.96217
1356.0	0.96192
1356.2	0.96166
1356.4	0.96141
1356.6	0.96116
1356.8	0.96091
1357.0	0.96066
1357.2	0.9604
1357.4	0.96015
1357.6	0.9599
1357.8	0.95965
1358.0	0.9594
1358.2	0.95914
1358.4	0.95889
1358.6	0.95864
1358.8	0.95839
1359.0	0.95814
1359.2	0.95789
1359.4	0.95763
1359.6	0.95738
1359.8	0.95713
1360.0	0.95688
1360.2	0.95683
1360.4	0.95678
1360.6	0.95674
1360.8	0.95669
1361.0	0.95664
1361.2	0.95659
1361.4	0.95655
1361.6	0.9565
1361.8	0.95645
1362.0	0.95641
1362.2	0.95636
1362.4	0.95631
1362.6	0.95626
1362.8	0.95622
1363.0	0.95617
1363.2	0.95612
1363.4	0.95607
1363.6	0.95603
1363.8	0.95598
1364.0	0.95593
1364.2	0.95589
1364.4	0.95584
1364.6	0.95579
1364.8	0.95574
1365.0	0.9557
1365.2	0.95565
1365.4	0.95561
1365.6	0.95556
1365.8	0.95552
1366.0	0.95547
1366.2	0.95542
1366.4	0.95538
1366.6	0.95533
1366.8	0.95529
1367.0	0.95524
1367.2	0.9552
1367.4	0.95515
1367.6	0.95511
1367.8	0.95506
1368.0	0.95502
1368.2	0.95497
1368.4	0.95493
1368.6	0.95488
1368.8	0.95483
1369.0	0.95479
1369.2	0.95474
1369.4	0.9547
1369.6	0.95465
1369.8	0.95461
1370.0	0.95456
1370.2	0.95435
1370.4	0.95415
1370.6	0.95394
1370.8	0.95373
1371.0	0.95352
1371.2	0.95332
1371.4	0.95311
1371.6	0.9529
1371.8	0.95269
1372.0	0.95249
1372.2	0.95228
1372.4	0.95207
1372.6	0.95186
1372.8	0.95166
1373.0	0.95145
1373.2	0.95124
1373.4	0.95103
1373.6	0.95083
1373.8	0.95062
1374.0	0.95041
1374.2	0.9502
1374.4	0.95
1374.6	0.94979
1374.8	0.94958
1375.0	0.94937
1375.2	0.9487
1375.4	0.94803
1375.6	0.94735
1375.8	0.94668
1376.0	0.94601
1376.2	0.94533
1376.4	0.94466
1376.6	0.94399
1376.8	0.94332
1377.0	0.94264
1377.2	0.94197
1377.4	0.9413
1377.6	0.94062
1377.8	0.93995
1378.0	0.93928
1378.2	0.9386
1378.4	0.93793
1378.6	0.93726
1378.8	0.93659
1379.0	0.93591
1379.2	0.93524
1379.4	0.93457
1379.6	0.93389
1379.8	0.93322
1380.0	0.93255
1380.2	0.93287
1380.4	0.9332
1380.6	0.93352
1380.8	0.93384
1381.0	0.93417
1381.2	0.93449
1381.4	0.93482
1381.6	0.93514
1381.8	0.93547
1382.0	0.93579
1382.2	0.93612
1382.4	0.93644
1382.6	0.93676
1382.8	0.93709
1383.0	0.93741
1383.2	0.93774
1383.4	0.93806
1383.6	0.93839
1383.8	0.93871
1384.0	0.93903
1384.2	0.93936
1384.4	0.93968
1384.6	0.94001
1384.8	0.94033
1385.0	0.94066
1385.2	0.94072
1385.4	0.94079
1385.6	0.94086
1385.8	0.94093
1386.0	0.941
1386.2	0.94106
1386.4	0.94113
1386.6	0.9412
1386.8	0.94127
1387.0	0.94134
1387.2	0.9414
1387.4	0.94147
1387.6	0.94154
1387.8	0.94161
1388.0	0.94168
1388.2	0.94174
1388.4	0.94181
1388.6	0.94188
1388.8	0.94195
1389.0	0.94202
1389.2	0.94209
1389.4	0.94215
1389.6	0.94222
1389.8	0.94229
1390.0	0.94236
1390.2	0.94251
1390.4	0.94266
1390.6	0.94282
1390.8	0.94297
1391.0	0.94313
1391.2	0.94328
1391.4	0.94343
1391.6	0.94359
1391.8	0.94374
1392.0	0.94389
1392.2	0.94405
1392.4	0.9442
1392.6	0.94436
1392.8	0.94451
1393.0	0.94466
1393.2	0.94482
1393.4	0.94497
1393.6	0.94512
1393.8	0.94528
1394.0	0.94543
1394.2	0.94559
1394.4	0.94574
1394.6	0.94589
1394.8	0.94605
1395.0	0.9462
1395.2	0.9461
1395.4	0.94601
1395.6	0.94591
1395.8	0.94581
1396.0	0.94571
1396.2	0.94562
1396.4	0.94552
1396.6	0.94542
1396.8	0.94533
1397.0	0.94523
1397.2	0.94513
1397.4	0.94503
1397.6	0.94494
1397.8	0.94484
1398.0	0.94474
1398.2	0.94464
1398.4	0.94455
1398.6	0.94445
1398.8	0.94435
1399.0	0.94426
1399.2	0.94416
1399.4	0.94406
1399.6	0.94396
1399.8	0.94387
1400.0	0.94377
1400.2	0.94449
1400.4	0.94521
1400.6	0.94593
1400.8	0.94665
1401.0	0.94737
1401.2	0.9481
1401.4	0.94882
1401.6	0.94954
1401.8	0.95026
1402.0	0.95098
1402.2	0.9517
1402.4	0.95242
1402.6	0.95314
1402.8	0.95387
1403.0	0.95459
1403.2	0.95531
1403.4	0.95603
1403.6	0.95675
1403.8	0.95747
1404.0	0.95819
1404.2	0.95891
1404.4	0.95963
1404.6	0.96036
1404.8	0.96108
1405.0	0.9618
1405.2	0.96197
1405.4	0.96215
1405.6	0.96232
1405.8	0.9625
1406.0	0.96267
1406.2	0.96284
1406.4	0.96302
1406.6	0.96319
1406.8	0.96337
1407.0	0.96354
1407.2	0.96372
1407.4	0.96389
1407.6	0.96406
1407.8	0.96424
1408.0	0.96441
1408.2	0.96459
1408.4	0.96476
1408.6	0.96494
1408.8	0.96511
1409.0	0.96528
1409.2	0.96546
1409.4	0.96563
1409.6	0.96581
1409.8	0.96598
1410.0	0.96616
1410.2	0.96613
1410.4	0.96611
1410.6	0.96608
1410.8	0.96606
1411.0	0.96603
1411.2	0.96601
1411.4	0.96598
1411.6	0.96595
1411.8	0.96593
1412.0	0.9659
1412.2	0.96588
1412.4	0.96585
1412.6	0.96583
1412.8	0.9658
1413.0	0.96578
1413.2	0.96575
1413.4	0.96573
1413.6	0.9657
1413.8	0.96568
1414.0	0.96565
1414.2	0.96563
1414.4	0.9656
1414.6	0.96558
1414.8	0.96555
1415.0	0.96553
1415.2	0.96509
1415.4	0.96466
1415.6	0.96422
1415.8	0.96379
1416.0	0.96335
1416.2	0.96291
1416.4	0.96248
1416.6	0.96204
1416.8	0.96161
1417.0	0.96117
1417.2	0.96074
1417.4	0.9603
1417.6	0.95987
1417.8	0.95943
1418.0	0.95899
1418.2	0.95856
1418.4	0.95812
1418.6	0.95769
1418.8	0.95725
1419.0	0.95682
1419.2	0.95638
1419.4	0.95595
1419.6	0.95551
1419.8	0.95507
1420.0	0.95464
1420.2	0.9548
1420.4	0.95496
1420.6	0.95512
1420.8	0.95528
1421.0	0.95544
1421.2	0.9556
1421.4	0.95576
1421.6	0.95592
1421.8	0.95608
1422.0	0.95623
1422.2	0.95639
1422.4	0.95655
1422.6	0.95671
1422.8	0.95687
1423.0	0.95703
1423.2	0.95719
1423.4	0.95735
1423.6	0.95751
1423.8	0.95767
1424.0	0.95783
1424.2	0.95799
1424.4	0.95815
1424.6	0.95831
1424.8	0.95847
1425.0	0.95863
1425.2	0.95906
1425.4	0.95949
1425.6	0.95992
1425.8	0.96035
1426.0	0.96078
1426.2	0.96121
1426.4	0.96164
1426.6	0.96207
1426.8	0.9625
1427.0	0.96293
1427.2	0.96336
1427.4	0.96379
1427.6	0.96422
1427.8	0.96465
1428.0	0.96508
1428.2	0.96551
1428.4	0.96594
1428.6	0.96637
1428.8	0.9668
1429.0	0.96723
1429.2	0.96766
1429.4	0.96809
1429.6	0.96852
1429.8	0.96895
1430.0	0.96938
1430.2	0.9689
1430.4	0.96842
1430.6	0.96795
1430.8	0.96747
1431.0	0.96699
1431.2	0.96651
1431.4	0.96603
1431.6	0.96555
1431.8	0.96507
1432.0	0.96459
1432.2	0.96412
1432.4	0.96364
1432.6	0.96316
1432.8	0.96268
1433.0	0.9622
1433.2	0.96172
1433.4	0.96124
1433.6	0.96076
1433.8	0.96028
1434.0	0.95981
1434.2	0.95933
1434.4	0.95885
1434.6	0.95837
1434.8	0.95789
1435.0	0.95741
1435.2	0.95737
1435.4	0.95733
1435.6	0.9573
1435.8	0.95726
1436.0	0.95722
1436.2	0.95718
1436.4	0.95714
1436.6	0.95711
1436.8	0.95707
1437.0	0.95703
1437.2	0.95699
1437.4	0.95695
1437.6	0.95692
1437.8	0.95688
1438.0	0.95684
1438.2	0.9568
1438.4	0.95676
1438.6	0.95672
1438.8	0.95669
1439.0	0.95665
1439.2	0.95661
1439.4	0.95657
1439.6	0.95653
1439.8	0.9565
1440.0	0.95646
1440.2	0.95652
1440.4	0.95658
1440.6	0.95664
1440.8	0.9567
1441.0	0.95676
1441.2	0.95683
1441.4	0.95689
1441.6	0.95695
1441.8	0.95701
1442.0	0.95707
1442.2	0.95713
1442.4	0.95719
1442.6	0.95725
1442.8	0.95732
1443.0	0.95738
1443.2	0.95744
1443.4	0.9575
1443.6	0.95756
1443.8	0.95762
1444.0	0.95768
1444.2	0.95775
1444.4	0.95781
1444.6	0.95787
1444.8	0.95793
1445.0	0.95799
1445.2	0.9583
1445.4	0.9586
1445.6	0.95891
1445.8	0.95921
1446.0	0.95952
1446.2	0.95982
1446.4	0.96013
1446.6	0.96043
1446.8	0.96074
1447.0	0.96104
1447.2	0.96135
1447.4	0.96165
1447.6	0.96196
1447.8	0.96226
1448.0	0.96257
1448.2	0.96287
1448.4	0.96318
1448.6	0.96348
1448.8	0.96379
1449.0	0.96409
1449.2	0.9644
1449.4	0.9647
1449.6	0.96501
1449.8	0.96531
1450.0	0.96562
1450.2	0.96534
1450.4	0.96507
1450.6	0.9648
1450.8	0.96452
1451.0	0.96425
1451.2	0.96398
1451.4	0.9637
1451.6	0.96343
1451.8	0.96316
1452.0	0.96289
1452.2	0.96261
1452.4	0.96234
1452.6	0.96207
1452.8	0.96179
1453.0	0.96152
1453.2	0.96125
1453.4	0.96097
1453.6	0.9607
1453.8	0.96043
1454.0	0.96015
1454.2	0.95988
1454.4	0.95961
1454.6	0.95934
1454.8	0.95906
1455.0	0.95879
1455.2	0.95888
1455.4	0.95897
1455.6	0.95906
1455.8	0.95916
1456.0	0.95925
1456.2	0.95934
1456.4	0.95943
1456.6	0.95952
1456.8	0.95961
1457.0	0.9597
1457.2	0.95979
1457.4	0.95989
1457.6	0.95998
1457.8	0.96007
1458.0	0.96016
1458.2	0.96025
1458.4	0.96034
1458.6	0.96043
1458.8	0.96053
1459.0	0.96062
1459.2	0.96071
1459.4	0.9608
1459.6	0.96089
1459.8	0.96098
1460.0	0.96107
1460.2	0.96054
1460.4	0.96
1460.6	0.95946
1460.8	0.95893
1461.0	0.95839
1461.2	0.95785
1461.4	0.95732
1461.6	0.95678
1461.8	0.95625
1462.0	0.95571
1462.2	0.95517
1462.4	0.95464
1462.6	0.9541
1462.8	0.95356
1463.0	0.95303
1463.2	0.95249
1463.4	0.95195
1463.6	0.95142
1463.8	0.95088
1464.0	0.95034
1464.2	0.94981
1464.4	0.94927
1464.6	0.94873
1464.8	0.9482
1465.0	0.94766
1465.2	0.9481
1465.4	0.94853
1465.6	0.94897
1465.8	0.9494
1466.0	0.94984
1466.2	0.95027
1466.4	0.95071
1466.6	0.95115
1466.8	0.95158
1467.0	0.95202
1467.2	0.95245
1467.4	0.95289
1467.6	0.95333
1467.8	0.95376
1468.0	0.9542
1468.2	0.95463
1468.4	0.95507
1468.6	0.9555
1468.8	0.95594
1469.0	0.95638
1469.2	0.95681
1469.4	0.95725
1469.6	0.95768
1469.8	0.95812
1470.0	0.95856
1470.2	0.95903
1470.4	0.95951
1470.6	0.95999
1470.8	0.96047
1471.0	0.96095
1471.2	0.96143
1471.4	0.96191
1471.6	0.96239
1471.8	0.96287
1472.0	0.96335
1472.2	0.96383
1472.4	0.96431
1472.6	0.96479
1472.8	0.96527
1473.0	0.96575
1473.2	0.96623
1473.4	0.96671
1473.6	0.96719
1473.8	0.96767
1474.0	0.96815
1474.2	0.96862
1474.4	0.9691
1474.6	0.96958
1474.8	0.97006
1475.0	0.97054
1475.2	0.97014
1475.4	0.96974
1475.6	0.96935
1475.8	0.96895
1476.0	0.96855
1476.2	0.96815
1476.4	0.96775
1476.6	0.96735
1476.8	0.96695
1477.0	0.96655
1477.2	0.96615
1477.4	0.96575
1477.6	0.96535
1477.8	0.96496
1478.0	0.96456
1478.2	0.96416
1478.4	0.96376
1478.6	0.96336
1478.8	0.96296
1479.0	0.96256
1479.2	0.96216
1479.4	0.96176
1479.6	0.96136
1479.8	0.96096
1480.0	0.96056
1480.2	0.96034
1480.4	0.96012
1480.6	0.9599
1480.8	0.95967
1481.0	0.95945
1481.2	0.95923
1481.4	0.95901
1481.6	0.95878
1481.8	0.95856
1482.0	0.95834
1482.2	0.95812
1482.4	0.95789
1482.6	0.95767
1482.8	0.95745
1483.0	0.95723
1483.2	0.957
1483.4	0.95678
1483.6	0.95656
1483.8	0.95633
1484.0	0.95611
1484.2	0.95589
1484.4	0.95567
1484.6	0.95544
1484.8	0.95522
1485.0	0.955
1485.2	0.95543
1485.4	0.95585
1485.6	0.95628
1485.8	0.95671
1486.0	0.95713
1486.2	0.95756
1486.4	0.95799
1486.6	0.95841
1486.8	0.95884
1487.0	0.95927
1487.2	0.95969
1487.4	0.96012
1487.6	0.96055
1487.8	0.96097
1488.0	0.9614
1488.2	0.96183
1488.4	0.96225
1488.6	0.96268
1488.8	0.96311
1489.0	0.96353
1489.2	0.96396
1489.4	0.96439
1489.6	0.96481
1489.8	0.96524
1490.0	0.96567
1490.2	0.96541
1490.4	0.96516
1490.6	0.9649
1490.8	0.96465
1491.0	0.96439
1491.2	0.96414
1491.4	0.96388
1491.6	0.96363
1491.8	0.96338
1492.0	0.96312
1492.2	0.96287
1492.4	0.96261
1492.6	0.96236
1492.8	0.9621
1493.0	0.96185
1493.2	0.96159
1493.4	0.96134
1493.6	0.96108
1493.8	0.96083
1494.0	0.96057
1494.2	0.96032
1494.4	0.96006
1494.6	0.95981
1494.8	0.95955
1495.0	0.9593
1495.2	0.95954
1495.4	0.95978
1495.6	0.96002
1495.8	0.96026
1496.0	0.9605
1496.2	0.96074
1496.4	0.96098
1496.6	0.96122
1496.8	0.96146
1497.0	0.9617
1497.2	0.96194
1497.4	0.96218
1497.6	0.96242
1497.8	0.96266
1498.0	0.9629
1498.2	0.96314
1498.4	0.96338
1498.6	0.96362
1498.8	0.96386
1499.0	0.9641
1499.2	0.96434
1499.4	0.96458
1499.6	0.96482
1499.8	0.96506
1500.0	0.9653
1500.2	0.96487
1500.4	0.96444
1500.6	0.96401
1500.8	0.96358
1501.0	0.96315
1501.2	0.96272
1501.4	0.96229
1501.6	0.96186
1501.8	0.96143
1502.0	0.961
1502.2	0.96057
1502.4	0.96014
1502.6	0.95971
1502.8	0.95928
1503.0	0.95885
1503.2	0.95842
1503.4	0.95799
1503.6	0.95756
1503.8	0.95713
1504.0	0.9567
1504.2	0.95627
1504.4	0.95584
1504.6	0.95541
1504.8	0.95499
1505.0	0.95456
1505.2	0.95412
1505.4	0.95368
1505.6	0.95323
1505.8	0.95279
1506.0	0.95235
1506.2	0.95191
1506.4	0.95147
1506.6	0.95103
1506.8	0.95059
1507.0	0.95015
1507.2	0.94971
1507.4	0.94927
1507.6	0.94883
1507.8	0.94839
1508.0	0.94795
1508.2	0.94751
1508.4	0.94707
1508.6	0.94663
1508.8	0.94619
1509.0	0.94575
1509.2	0.94531
1509.4	0.94487
1509.6	0.94443
1509.8	0.94399
1510.0	0.94355
1510.2	0.94383
1510.4	0.94412
1510.6	0.9444
1510.8	0.94469
1511.0	0.94497
1511.2	0.94525
1511.4	0.94554
1511.6	0.94582
1511.8	0.94611
1512.0	0.94639
1512.2	0.94667
1512.4	0.94696
1512.6	0.94724
1512.8	0.94753
1513.0	0.94781
1513.2	0.94809
1513.4	0.94838
1513.6	0.94866
1513.8	0.94895
1514.0	0.94923
1514.2	0.94951
1514.4	0.9498
1514.6	0.95008
1514.8	0.95037
1515.0	0.95065
1515.2	0.95094
1515.4	0.95123
1515.6	0.95152
1515.8	0.95181
1516.0	0.95211
1516.2	0.9524
1516.4	0.95269
1516.6	0.95298
1516.8	0.95327
1517.0	0.95356
1517.2	0.95385
1517.4	0.95414
1517.6	0.95443
1517.8	0.95472
1518.0	0.95501
1518.2	0.95531
1518.4	0.9556
1518.6	0.95589
1518.8	0.95618
1519.0	0.95647
1519.2	0.95676
1519.4	0.95705
1519.6	0.95734
1519.8	0.95763
1520.0	0.95792
1520.2	0.95762
1520.4	0.95732
1520.6	0.95701
1520.8	0.95671
1521.0	0.9564
1521.2	0.9561
1521.4	0.95579
1521.6	0.95549
1521.8	0.95518
1522.0	0.95488
1522.2	0.95457
1522.4	0.95427
1522.6	0.95396
1522.8	0.95366
1523.0	0.95335
1523.2	0.95305
1523.4	0.95274
1523.6	0.95244
1523.8	0.95213
1524.0	0.95183
1524.2	0.95153
1524.4	0.95122
1524.6	0.95092
1524.8	0.95061
1525.0	0.95031
1525.2	0.95035
1525.4	0.9504
1525.6	0.95044
1525.8	0.95049
1526.0	0.95054
1526.2	0.95058
1526.4	0.95063
1526.6	0.95068
1526.8	0.95072
1527.0	0.95077
1527.2	0.95081
1527.4	0.95086
1527.6	0.95091
1527.8	0.95095
1528.0	0.951
1528.2	0.95105
1528.4	0.95109
1528.6	0.95114
1528.8	0.95118
1529.0	0.95123
1529.2	0.95128
1529.4	0.95132
1529.6	0.95137
1529.8	0.95141
1530.0	0.95146
1530.2	0.95165
1530.4	0.95183
1530.6	0.95202
1530.8	0.95221
1531.0	0.95239
1531.2	0.95258
1531.4	0.95277
1531.6	0.95295
1531.8	0.95314
1532.0	0.95333
1532.2	0.95351
1532.4	0.9537
1532.6	0.95389
1532.8	0.95407
1533.0	0.95426
1533.2	0.95444
1533.4	0.95463
1533.6	0.95482
1533.8	0.955
1534.0	0.95519
1534.2	0.95538
1534.4	0.95556
1534.6	0.95575
1534.8	0.95594
1535.0	0.95612
1535.2	0.95602
1535.4	0.95592
1535.6	0.95582
1535.8	0.95572
1536.0	0.95562
1536.2	0.95552
1536.4	0.95542
1536.6	0.95532
1536.8	0.95522
1537.0	0.95512
1537.2	0.95502
1537.4	0.95492
1537.6	0.95482
1537.8	0.95472
1538.0	0.95462
1538.2	0.95452
1538.4	0.95441
1538.6	0.95431
1538.8	0.95421
1539.0	0.95411
1539.2	0.95401
1539.4	0.95391
1539.6	0.95381
1539.8	0.95371
1540.0	0.95361
1540.2	0.95354
1540.4	0.95346
1540.6	0.95339
1540.8	0.95331
1541.0	0.95324
1541.2	0.95316
1541.4	0.95309
1541.6	0.95301
1541.8	0.95294
1542.0	0.95287
1542.2	0.95279
1542.4	0.95272
1542.6	0.95264
1542.8	0.95257
1543.0	0.95249
1543.2	0.95242
1543.4	0.95234
1543.6	0.95227
1543.8	0.9522
1544.0	0.95212
1544.2	0.95205
1544.4	0.95197
1544.6	0.9519
1544.8	0.95182
1545.0	0.95175
1545.2	0.95231
1545.4	0.95288
1545.6	0.95344
1545.8	0.95401
1546.0	0.95457
1546.2	0.95513
1546.4	0.9557
1546.6	0.95626
1546.8	0.95683
1547.0	0.95739
1547.2	0.95796
1547.4	0.95852
1547.6	0.95908
1547.8	0.95965
1548.0	0.96021
1548.2	0.96078
1548.4	0.96134
1548.6	0.96191
1548.8	0.96247
1549.0	0.96303
1549.2	0.9636
1549.4	0.96416
1549.6	0.96473
1549.8	0.96529
1550.0	0.96586
1550.2	0.96536
1550.4	0.96486
1550.6	0.96436
1550.8	0.96386
1551.0	0.96336
1551.2	0.96286
1551.4	0.96236
1551.6	0.96186
1551.8	0.96136
1552.0	0.96086
1552.2	0.96036
1552.4	0.95986
1552.6	0.95936
1552.8	0.95886
1553.0	0.95836
1553.2	0.95786
1553.4	0.95736
1553.6	0.95686
1553.8	0.95636
1554.0	0.95587
1554.2	0.95537
1554.4	0.95487
1554.6	0.95437
1554.8	0.95387
1555.0	0.95337
1555.2	0.95328
1555.4	0.9532
1555.6	0.95312
1555.8	0.95303
1556.0	0.95295
1556.2	0.95287
1556.4	0.95278
1556.6	0.9527
1556.8	0.95261
1557.0	0.95253
1557.2	0.95245
1557.4	0.95236
1557.6	0.95228
1557.8	0.9522
1558.0	0.95211
1558.2	0.95203
1558.4	0.95195
1558.6	0.95186
1558.8	0.95178
1559.0	0.95169
1559.2	0.95161
1559.4	0.95153
1559.6	0.95144
1559.8	0.95136
1560.0	0.95128
1560.2	0.95158
1560.4	0.95189
1560.6	0.95219
1560.8	0.9525
1561.0	0.95281
1561.2	0.95311
1561.4	0.95342
1561.6	0.95372
1561.8	0.95403
1562.0	0.95434
1562.2	0.95464
1562.4	0.95495
1562.6	0.95526
1562.8	0.95556
1563.0	0.95587
1563.2	0.95617
1563.4	0.95648
1563.6	0.95679
1563.8	0.95709
1564.0	0.9574
1564.2	0.9577
1564.4	0.95801
1564.6	0.95832
1564.8	0.95862
1565.0	0.95893
1565.2	0.95889
1565.4	0.95885
1565.6	0.9588
1565.8	0.95876
1566.0	0.95872
1566.2	0.95868
1566.4	0.95864
1566.6	0.9586
1566.8	0.95855
1567.0	0.95851
1567.2	0.95847
1567.4	0.95843
1567.6	0.95839
1567.8	0.95834
1568.0	0.9583
1568.2	0.95826
1568.4	0.95822
1568.6	0.95818
1568.8	0.95814
1569.0	0.95809
1569.2	0.95805
1569.4	0.95801
1569.6	0.95797
1569.8	0.95793
1570.0	0.95789
1570.2	0.95833
1570.4	0.95877
1570.6	0.95921
1570.8	0.95965
1571.0	0.96009
1571.2	0.96053
1571.4	0.96097
1571.6	0.96141
1571.8	0.96185
1572.0	0.9623
1572.2	0.96274
1572.4	0.96318
1572.6	0.96362
1572.8	0.96406
1573.0	0.9645
1573.2	0.96494
1573.4	0.96538
1573.6	0.96582
1573.8	0.96626
1574.0	0.96671
1574.2	0.96715
1574.4	0.96759
1574.6	0.96803
1574.8	0.96847
1575.0	0.96891
1575.2	0.96842
1575.4	0.96793
1575.6	0.96744
1575.8	0.96695
1576.0	0.96646
1576.2	0.96597
1576.4	0.96548
1576.6	0.96499
1576.8	0.9645
1577.0	0.96401
1577.2	0.96352
1577.4	0.96303
1577.6	0.96254
1577.8	0.96205
1578.0	0.96156
1578.2	0.96107
1578.4	0.96058
1578.6	0.96009
1578.8	0.9596
1579.0	0.95911
1579.2	0.95862
1579.4	0.95813
1579.6	0.95764
1579.8	0.95714
1580.0	0.95665
1580.2	0.95677
1580.4	0.95688
1580.6	0.95699
1580.8	0.9571
1581.0	0.95721
1581.2	0.95732
1581.4	0.95743
1581.6	0.95754
1581.8	0.95765
1582.0	0.95776
1582.2	0.95787
1582.4	0.95799
1582.6	0.9581
1582.8	0.95821
1583.0	0.95832
1583.2	0.95843
1583.4	0.95854
1583.6	0.95865
1583.8	0.95876
1584.0	0.95887
1584.2	0.95898
1584.4	0.95909
1584.6	0.9592
1584.8	0.95932
1585.0	0.95943
1585.2	0.95909
1585.4	0.95875
1585.6	0.95841
1585.8	0.95807
1586.0	0.95773
1586.2	0.9574
1586.4	0.95706
1586.6	0.95672
1586.8	0.95638
1587.0	0.95604
1587.2	0.9557
1587.4	0.95536
1587.6	0.95503
1587.8	0.95469
1588.0	0.95435
1588.2	0.95401
1588.4	0.95367
1588.6	0.95333
1588.8	0.953
1589.0	0.95266
1589.2	0.95232
1589.4	0.95198
1589.6	0.95164
1589.8	0.9513
1590.0	0.95096
1590.2	0.95155
1590.4	0.95214
1590.6	0.95273
1590.8	0.95332
1591.0	0.95391
1591.2	0.95449
1591.4	0.95508
1591.6	0.95567
1591.8	0.95626
1592.0	0.95685
1592.2	0.95743
1592.4	0.95802
1592.6	0.95861
1592.8	0.9592
1593.0	0.95979
1593.2	0.96038
1593.4	0.96096
1593.6	0.96155
1593.8	0.96214
1594.0	0.96273
1594.2	0.96332
1594.4	0.9639
1594.6	0.96449
1594.8	0.96508
1595.0	0.96567
1595.2	0.96536
1595.4	0.96506
1595.6	0.96475
1595.8	0.96445
1596.0	0.96415
1596.2	0.96384
1596.4	0.96354
1596.6	0.96323
1596.8	0.96293
1597.0	0.96262
1597.2	0.96232
1597.4	0.96201
1597.6	0.96171
1597.8	0.9614
1598.0	0.9611
1598.2	0.96079
1598.4	0.96049
1598.6	0.96018
1598.8	0.95988
1599.0	0.95958
1599.2	0.95927
1599.4	0.95897
1599.6	0.95866
1599.8	0.95836
1600.0	0.95805
1600.2	0.95488
1600.4	0.9517
1600.6	0.94853
1600.8	0.94536
1601.0	0.94218
1601.2	0.93901
1601.4	0.93584
1601.6	0.93266
1601.8	0.92949
1602.0	0.92632
1602.2	0.92314
1602.4	0.91997
1602.6	0.9168
1602.8	0.91362
1603.0	0.91045
1603.2	0.90727
1603.4	0.9041
1603.6	0.90093
1603.8	0.89775
1604.0	0.89458
1604.2	0.89141
1604.4	0.88823
1604.6	0.88506
1604.8	0.88189
1605.0	0.87871
1605.2	0.8697
1605.4	0.86068
1605.6	0.85166
1605.8	0.84265
1606.0	0.83363
1606.2	0.82462
1606.4	0.8156
1606.6	0.80658
1606.8	0.79757
1607.0	0.78855
1607.2	0.77954
1607.4	0.77052
1607.6	0.7615
1607.8	0.75249
1608.0	0.74347
1608.2	0.73446
1608.4	0.72544
1608.6	0.71642
1608.8	0.70741
1609.0	0.69839
1609.2	0.68937
1609.4	0.68036
1609.6	0.67134
1609.8	0.66233
1610.0	0.65331