Typical Measured Spectrum of Semrock NF03-808E Optical Filter	
For wavelengths between 320 and 1120 nm, values near or below 3e-7 (Optical Density 6.5) are measurement noise limited.
For wavelengths < 320 nm and > 1120 nm, values near or below 3e-6 (Optical Density 5.5) are measurement noise limited. 
Data format:  Wavelength (nm) <tab> Transmission (0 to 1)
345.0	0.01829
345.2	0.02347
345.4	0.04178
345.6	0.08536
345.8	0.11575
346.0	0.09585
346.2	0.127
346.4	0.16958
346.6	0.18412
346.8	0.21209
347.0	0.23202
347.2	0.30726
347.4	0.39127
347.6	0.47187
347.8	0.55054
348.0	0.58279
348.2	0.59814
348.4	0.61441
348.6	0.62776
348.8	0.63913
349.0	0.64841
349.2	0.65557
349.4	0.66234
349.6	0.67014
349.8	0.67689
350.0	0.68338
350.2	0.68751
350.4	0.69402
350.6	0.69873
350.8	0.70516
351.0	0.70876
351.2	0.71263
351.4	0.71856
351.6	0.72153
351.8	0.72704
352.0	0.73077
352.2	0.73232
352.4	0.73662
352.6	0.73974
352.8	0.74463
353.0	0.748
353.2	0.75047
353.4	0.75502
353.6	0.75669
353.8	0.75911
354.0	0.764
354.2	0.76677
354.4	0.76798
354.6	0.77281
354.8	0.77449
355.0	0.77739
355.2	0.78049
355.4	0.78026
355.6	0.78166
355.8	0.7856
356.0	0.78607
356.2	0.78712
356.4	0.79171
356.6	0.7943
356.8	0.79602
357.0	0.79864
357.2	0.79976
357.4	0.79954
357.6	0.80194
357.8	0.80465
358.0	0.80382
358.2	0.80671
358.4	0.81044
358.6	0.8103
358.8	0.81056
359.0	0.81365
359.2	0.81414
359.4	0.81408
359.6	0.81679
359.8	0.81981
360.0	0.81862
360.2	0.82101
360.4	0.82276
360.6	0.81989
360.8	0.81777
361.0	0.82088
361.2	0.8222
361.4	0.81914
361.6	0.81899
361.8	0.82451
362.0	0.82653
362.2	0.82446
362.4	0.82324
362.6	0.82922
362.8	0.83104
363.0	0.82731
363.2	0.82605
363.4	0.82938
363.6	0.83044
363.8	0.82854
364.0	0.82906
364.2	0.83127
364.4	0.83122
364.6	0.83149
364.8	0.8347
365.0	0.83607
365.2	0.83547
365.4	0.83839
365.6	0.83984
365.8	0.83551
366.0	0.83602
366.2	0.83976
366.4	0.84112
366.6	0.84012
366.8	0.83998
367.0	0.84541
367.2	0.84774
367.4	0.84571
367.6	0.84298
367.8	0.84639
368.0	0.84904
368.2	0.84783
368.4	0.846
368.6	0.84796
368.8	0.84962
369.0	0.84984
369.2	0.84852
369.4	0.85012
369.6	0.85363
369.8	0.8557
370.0	0.85457
370.2	0.85446
370.4	0.85677
370.6	0.85664
370.8	0.85393
371.0	0.85264
371.2	0.85462
371.4	0.85787
371.6	0.85907
371.8	0.8609
372.0	0.86405
372.2	0.86858
372.4	0.86861
372.6	0.86417
372.8	0.86137
373.0	0.86374
373.2	0.86556
373.4	0.86432
373.6	0.86273
373.8	0.86417
374.0	0.86711
374.2	0.86884
374.4	0.86751
374.6	0.8671
374.8	0.87017
375.0	0.87103
375.2	0.87031
375.4	0.86793
375.6	0.87162
375.8	0.87604
376.0	0.88055
376.2	0.87876
376.4	0.87695
376.6	0.87646
376.8	0.8809
377.0	0.88332
377.2	0.87878
377.4	0.87697
377.6	0.87735
377.8	0.88322
378.0	0.88536
378.2	0.88455
378.4	0.88008
378.6	0.88104
378.8	0.8862
379.0	0.88898
379.2	0.88796
379.4	0.88652
379.6	0.88807
379.8	0.89245
380.0	0.89576
380.2	0.89385
380.4	0.88954
380.6	0.88974
380.8	0.89347
381.0	0.89534
381.2	0.8935
381.4	0.89143
381.6	0.89352
381.8	0.89939
382.0	0.9017
382.2	0.90063
382.4	0.89766
382.6	0.89639
382.8	0.89972
383.0	0.90232
383.2	0.90194
383.4	0.89896
383.6	0.89882
383.8	0.90401
384.0	0.90944
384.2	0.91147
384.4	0.90683
384.6	0.90272
384.8	0.90455
385.0	0.90829
385.2	0.91106
385.4	0.90925
385.6	0.9063
385.8	0.90693
386.0	0.91159
386.2	0.91326
386.4	0.91202
386.6	0.90732
386.8	0.90643
387.0	0.91234
387.2	0.91904
387.4	0.92224
387.6	0.91826
387.8	0.91524
388.0	0.91359
388.2	0.91727
388.4	0.92133
388.6	0.92075
388.8	0.91742
389.0	0.91651
389.2	0.92176
389.4	0.92613
389.6	0.92599
389.8	0.92191
390.0	0.91531
390.2	0.91641
390.4	0.92314
390.6	0.92866
390.8	0.92946
391.0	0.92623
391.2	0.92162
391.4	0.92253
391.6	0.92718
391.8	0.93015
392.0	0.92522
392.2	0.92083
392.4	0.9193
392.6	0.92597
392.8	0.93003
393.0	0.93017
393.2	0.92465
393.4	0.91979
393.6	0.91952
393.8	0.92588
394.0	0.93182
394.2	0.93411
394.4	0.92977
394.6	0.92208
394.8	0.92135
395.0	0.92898
395.2	0.93552
395.4	0.93861
395.6	0.93202
395.8	0.92457
396.0	0.92521
396.2	0.93122
396.4	0.93783
396.6	0.93841
396.8	0.93427
397.0	0.92794
397.2	0.92817
397.4	0.93324
397.6	0.9417
397.8	0.9426
398.0	0.93614
398.2	0.92915
398.4	0.92802
398.6	0.9346
398.8	0.93893
399.0	0.94241
399.2	0.93821
399.4	0.93296
399.6	0.92944
399.8	0.93309
400.0	0.94104
400.2	0.94261
400.4	0.94093
400.6	0.9338
400.8	0.93137
401.0	0.93599
401.2	0.94287
401.4	0.94411
401.6	0.94215
401.8	0.93527
402.0	0.9304
402.2	0.93374
402.4	0.9419
402.6	0.94692
402.8	0.94579
403.0	0.93856
403.2	0.93049
403.4	0.92887
403.6	0.93565
403.8	0.94247
404.0	0.94836
404.2	0.94351
404.4	0.9344
404.6	0.93092
404.8	0.93272
405.0	0.94065
405.2	0.94679
405.4	0.94573
405.6	0.94002
405.8	0.93313
406.0	0.93151
406.2	0.93743
406.4	0.94432
406.6	0.94608
406.8	0.94227
407.0	0.93512
407.2	0.93047
407.4	0.93388
407.6	0.94091
407.8	0.94753
408.0	0.94565
408.2	0.94261
408.4	0.93561
408.6	0.93284
408.8	0.93671
409.0	0.9425
409.2	0.94688
409.4	0.94392
409.6	0.93785
409.8	0.93456
410.0	0.93567
410.2	0.94184
410.4	0.94554
410.6	0.94832
410.8	0.94393
411.0	0.93695
411.2	0.93326
411.4	0.93625
411.6	0.94219
411.8	0.94771
412.0	0.94488
412.2	0.93928
412.4	0.93332
412.6	0.93132
412.8	0.9352
413.0	0.94298
413.2	0.94848
413.4	0.94684
413.6	0.94006
413.8	0.93308
414.0	0.9299
414.2	0.93407
414.4	0.94118
414.6	0.94511
414.8	0.9451
415.0	0.93973
415.2	0.93602
415.4	0.93404
415.6	0.93662
415.8	0.94313
416.0	0.94571
416.2	0.94287
416.4	0.93729
416.6	0.92998
416.8	0.9286
417.0	0.93066
417.2	0.93813
417.4	0.94407
417.6	0.94281
417.8	0.93905
418.0	0.93204
418.2	0.93053
418.4	0.93352
418.6	0.94018
418.8	0.94388
419.0	0.94411
419.2	0.93945
419.4	0.93352
419.6	0.93013
419.8	0.93329
420.0	0.93742
420.2	0.94418
420.4	0.94496
420.6	0.94219
420.8	0.93661
421.0	0.93447
421.2	0.93379
421.4	0.93895
421.6	0.94207
421.8	0.94316
422.0	0.93993
422.2	0.93708
422.4	0.93424
422.6	0.93771
422.8	0.94266
423.0	0.94607
423.2	0.94703
423.4	0.94276
423.6	0.93571
423.8	0.92805
424.0	0.92571
424.2	0.9306
424.4	0.93718
424.6	0.94205
424.8	0.94331
425.0	0.93879
425.2	0.93169
425.4	0.9271
425.6	0.92764
425.8	0.9339
426.0	0.94095
426.2	0.94445
426.4	0.94417
426.6	0.93853
426.8	0.93195
427.0	0.92867
427.2	0.93014
427.4	0.93648
427.6	0.94228
427.8	0.94582
428.0	0.94329
428.2	0.9384
428.4	0.93459
428.6	0.93336
428.8	0.93654
429.0	0.9412
429.2	0.94439
429.4	0.94498
429.6	0.94087
429.8	0.935
430.0	0.9325
430.2	0.93396
430.4	0.9391
430.6	0.94514
430.8	0.94812
431.0	0.94698
431.2	0.94235
431.4	0.93722
431.6	0.93423
431.8	0.93673
432.0	0.9408
432.2	0.94727
432.4	0.94946
432.6	0.94755
432.8	0.94365
433.0	0.9389
433.2	0.93627
433.4	0.9389
433.6	0.94423
433.8	0.94903
434.0	0.95047
434.2	0.94767
434.4	0.94263
434.6	0.93726
434.8	0.93725
435.0	0.93933
435.2	0.94306
435.4	0.94801
435.6	0.94993
435.8	0.94704
436.0	0.94305
436.2	0.93828
436.4	0.93764
436.6	0.94009
436.8	0.94392
437.0	0.94904
437.2	0.95063
437.4	0.94843
437.6	0.94365
437.8	0.93914
438.0	0.93847
438.2	0.94027
438.4	0.94509
438.6	0.94893
438.8	0.9512
439.0	0.94836
439.2	0.94327
439.4	0.93812
439.6	0.93659
439.8	0.93902
440.0	0.94312
440.2	0.94806
440.4	0.95108
440.6	0.94931
440.8	0.94566
441.0	0.94107
441.2	0.93871
441.4	0.9399
441.6	0.94523
441.8	0.95085
442.0	0.95443
442.2	0.95273
442.4	0.94956
442.6	0.94388
442.8	0.93903
443.0	0.93976
443.2	0.94377
443.4	0.94991
443.6	0.95551
443.8	0.95751
444.0	0.95534
444.2	0.95049
444.4	0.946
444.6	0.94417
444.8	0.94482
445.0	0.94907
445.2	0.95392
445.4	0.95652
445.6	0.95553
445.8	0.95135
446.0	0.94604
446.2	0.94374
446.4	0.94368
446.6	0.94813
446.8	0.95509
447.0	0.95906
447.2	0.96084
447.4	0.95778
447.6	0.95221
447.8	0.94553
448.0	0.94123
448.2	0.94299
448.4	0.94783
448.6	0.95448
448.8	0.95855
449.0	0.96082
449.2	0.95779
449.4	0.95426
449.6	0.94935
449.8	0.94902
450.0	0.95082
450.2	0.95496
450.4	0.95815
450.6	0.96016
450.8	0.95738
451.0	0.95133
451.2	0.94532
451.4	0.94225
451.6	0.94095
451.8	0.94574
452.0	0.95271
452.2	0.95924
452.4	0.96136
452.6	0.95908
452.8	0.9531
453.0	0.94663
453.2	0.94139
453.4	0.94099
453.6	0.94413
453.8	0.95158
454.0	0.95987
454.2	0.96486
454.4	0.96532
454.6	0.96304
454.8	0.9568
455.0	0.95233
455.2	0.94928
455.4	0.95047
455.6	0.95497
455.8	0.95979
456.0	0.96178
456.2	0.96187
456.4	0.95927
456.6	0.95583
456.8	0.95426
457.0	0.95443
457.2	0.95788
457.4	0.96284
457.6	0.96773
457.8	0.96906
458.0	0.96735
458.2	0.96069
458.4	0.95547
458.6	0.95002
458.8	0.94803
459.0	0.94945
459.2	0.95388
459.4	0.95889
459.6	0.96287
459.8	0.96311
460.0	0.96174
460.2	0.95863
460.4	0.95548
460.6	0.95447
460.8	0.9559
461.0	0.96027
461.2	0.96388
461.4	0.96646
461.6	0.96601
461.8	0.96237
462.0	0.95843
462.2	0.9552
462.4	0.95298
462.6	0.95441
462.8	0.95756
463.0	0.96313
463.2	0.9658
463.4	0.96564
463.6	0.96247
463.8	0.95677
464.0	0.95135
464.2	0.94846
464.4	0.94867
464.6	0.95388
464.8	0.95915
465.0	0.96689
465.2	0.97053
465.4	0.97104
465.6	0.96826
465.8	0.96195
466.0	0.9561
466.2	0.95312
466.4	0.95305
466.6	0.95683
466.8	0.96223
467.0	0.96781
467.2	0.96996
467.4	0.96949
467.6	0.96551
467.8	0.95995
468.0	0.95711
468.2	0.95562
468.4	0.95294
468.6	0.95231
468.8	0.95459
469.0	0.95967
469.2	0.96461
469.4	0.96658
469.6	0.96654
469.8	0.96397
470.0	0.95909
470.2	0.95589
470.4	0.95419
470.6	0.95538
470.8	0.95782
471.0	0.9617
471.2	0.96523
471.4	0.96758
471.6	0.96643
471.8	0.96426
472.0	0.96067
472.2	0.95747
472.4	0.95663
472.6	0.95798
472.8	0.96119
473.0	0.96503
473.2	0.96715
473.4	0.9674
473.6	0.96623
473.8	0.96256
474.0	0.95966
474.2	0.95828
474.4	0.95821
474.6	0.96109
474.8	0.96409
475.0	0.9675
475.2	0.96972
475.4	0.96893
475.6	0.96663
475.8	0.96266
476.0	0.95862
476.2	0.95667
476.4	0.95763
476.6	0.96024
476.8	0.96463
477.0	0.96913
477.2	0.97155
477.4	0.97187
477.6	0.97016
477.8	0.96608
478.0	0.96147
478.2	0.95801
478.4	0.95796
478.6	0.95983
478.8	0.96329
479.0	0.96689
479.2	0.97024
479.4	0.9707
479.6	0.96842
479.8	0.96527
480.0	0.96121
480.2	0.95885
480.4	0.9583
480.6	0.96098
480.8	0.96501
481.0	0.96842
481.2	0.97251
481.4	0.97433
481.6	0.97271
481.8	0.96825
482.0	0.9627
482.2	0.95888
482.4	0.95654
482.6	0.95585
482.8	0.95872
483.0	0.96399
483.2	0.96817
483.4	0.97138
483.6	0.97194
483.8	0.97019
484.0	0.96562
484.2	0.96108
484.4	0.95693
484.6	0.95488
484.8	0.95582
485.0	0.95776
485.2	0.96021
485.4	0.96282
485.6	0.96435
485.8	0.9629
486.0	0.96063
486.2	0.9577
486.4	0.9552
486.6	0.95387
486.8	0.95539
487.0	0.95844
487.2	0.9623
487.4	0.96593
487.6	0.96741
487.8	0.96667
488.0	0.96503
488.2	0.96134
488.4	0.95635
488.6	0.95481
488.8	0.95404
489.0	0.95614
489.2	0.95944
489.4	0.96457
489.6	0.96857
489.8	0.97018
490.0	0.96967
490.2	0.9673
490.4	0.96289
490.6	0.9585
490.8	0.95512
491.0	0.95283
491.2	0.95499
491.4	0.95767
491.6	0.96136
491.8	0.965
492.0	0.96624
492.2	0.96573
492.4	0.96324
492.6	0.95966
492.8	0.9563
493.0	0.95438
493.2	0.95434
493.4	0.95567
493.6	0.95951
493.8	0.96271
494.0	0.96609
494.2	0.9682
494.4	0.9662
494.6	0.96359
494.8	0.95988
495.0	0.95618
495.2	0.95421
495.4	0.954
495.6	0.95688
495.8	0.96062
496.0	0.96499
496.2	0.96977
496.4	0.97175
496.6	0.9706
496.8	0.96769
497.0	0.96392
497.2	0.95962
497.4	0.9558
497.6	0.95473
497.8	0.95521
498.0	0.95796
498.2	0.96059
498.4	0.96313
498.6	0.9652
498.8	0.96459
499.0	0.96173
499.2	0.9575
499.4	0.95321
499.6	0.95097
499.8	0.95013
500.0	0.95098
500.2	0.95072
500.4	0.95423
500.6	0.95875
500.8	0.9633
501.0	0.96659
501.2	0.96767
501.4	0.96641
501.6	0.96343
501.8	0.95855
502.0	0.95491
502.2	0.95165
502.4	0.95012
502.6	0.95194
502.8	0.95418
503.0	0.95774
503.2	0.96089
503.4	0.96305
503.6	0.96232
503.8	0.96103
504.0	0.95796
504.2	0.95512
504.4	0.9528
504.6	0.95189
504.8	0.95256
505.0	0.95509
505.2	0.95897
505.4	0.96145
505.6	0.96438
505.8	0.965
506.0	0.96318
506.2	0.96056
506.4	0.95623
506.6	0.95257
506.8	0.95021
507.0	0.94962
507.2	0.95131
507.4	0.9542
507.6	0.95805
507.8	0.96216
508.0	0.96456
508.2	0.96515
508.4	0.96385
508.6	0.96117
508.8	0.95757
509.0	0.9535
509.2	0.95137
509.4	0.94971
509.6	0.95081
509.8	0.95255
510.0	0.95473
510.2	0.95742
510.4	0.95847
510.6	0.9586
510.8	0.95746
511.0	0.95511
511.2	0.95299
511.4	0.95131
511.6	0.95085
511.8	0.95151
512.0	0.95391
512.2	0.95682
512.4	0.95936
512.6	0.9619
512.8	0.96249
513.0	0.96206
513.2	0.95995
513.4	0.95637
513.6	0.95319
513.8	0.94998
514.0	0.94921
514.2	0.9496
514.4	0.95204
514.6	0.95535
514.8	0.95863
515.0	0.96143
515.2	0.96313
515.4	0.96296
515.6	0.96097
515.8	0.95824
516.0	0.95526
516.2	0.95266
516.4	0.95198
516.6	0.95219
516.8	0.95474
517.0	0.95731
517.2	0.96025
517.4	0.96271
517.6	0.96356
517.8	0.96254
518.0	0.96034
518.2	0.95596
518.4	0.95184
518.6	0.94824
518.8	0.94602
519.0	0.9454
519.2	0.94677
519.4	0.94971
519.6	0.95379
519.8	0.95794
520.0	0.96081
520.2	0.96224
520.4	0.96121
520.6	0.95883
520.8	0.95532
521.0	0.95185
521.2	0.94835
521.4	0.94653
521.6	0.94585
521.8	0.94732
522.0	0.94956
522.2	0.95298
522.4	0.9555
522.6	0.95704
522.8	0.95681
523.0	0.95586
523.2	0.9534
523.4	0.95007
523.6	0.94724
523.8	0.94491
524.0	0.94425
524.2	0.94581
524.4	0.9478
524.6	0.95013
524.8	0.95302
525.0	0.95533
525.2	0.95514
525.4	0.95467
525.6	0.95308
525.8	0.95025
526.0	0.94717
526.2	0.94512
526.4	0.94375
526.6	0.94394
526.8	0.94593
527.0	0.94916
527.2	0.95316
527.4	0.95615
527.6	0.95741
527.8	0.9585
528.0	0.9582
528.2	0.95526
528.4	0.95214
528.6	0.9485
528.8	0.94595
529.0	0.94422
529.2	0.94409
529.4	0.94498
529.6	0.94748
529.8	0.95023
530.0	0.95342
530.2	0.95576
530.4	0.95707
530.6	0.95697
530.8	0.95612
531.0	0.95399
531.2	0.95159
531.4	0.94951
531.6	0.94808
531.8	0.94834
532.0	0.94966
532.2	0.95132
532.4	0.95426
532.6	0.9564
532.8	0.95838
533.0	0.95824
533.2	0.95759
533.4	0.95535
533.6	0.95288
533.8	0.95006
534.0	0.94833
534.2	0.94709
534.4	0.94745
534.6	0.94882
534.8	0.95191
535.0	0.95402
535.2	0.95651
535.4	0.95856
535.6	0.95999
535.8	0.95917
536.0	0.95766
536.2	0.95511
536.4	0.9526
536.6	0.95007
536.8	0.94844
537.0	0.9481
537.2	0.94842
537.4	0.95003
537.6	0.95225
537.8	0.95441
538.0	0.95652
538.2	0.95755
538.4	0.9579
538.6	0.95645
538.8	0.95461
539.0	0.9519
539.2	0.94947
539.4	0.94771
539.6	0.94664
539.8	0.94723
540.0	0.94779
540.2	0.95057
540.4	0.95295
540.6	0.95483
540.8	0.95637
541.0	0.95697
541.2	0.95664
541.4	0.95496
541.6	0.95282
541.8	0.95069
542.0	0.94982
542.2	0.94826
542.4	0.94884
542.6	0.95018
542.8	0.95155
543.0	0.95546
543.2	0.95833
543.4	0.95863
543.6	0.95826
543.8	0.95632
544.0	0.95386
544.2	0.95068
544.4	0.94839
544.6	0.94631
544.8	0.9455
545.0	0.94581
545.2	0.94684
545.4	0.94831
545.6	0.95081
545.8	0.95298
546.0	0.9546
546.2	0.95532
546.4	0.95498
546.6	0.95371
546.8	0.95252
547.0	0.95019
547.2	0.94914
547.4	0.94823
547.6	0.94833
547.8	0.94942
548.0	0.95153
548.2	0.95322
548.4	0.95575
548.6	0.95739
548.8	0.95863
549.0	0.95859
549.2	0.95721
549.4	0.95538
549.6	0.9526
549.8	0.95033
550.0	0.94805
550.2	0.94711
550.4	0.94719
550.6	0.94834
550.8	0.95027
551.0	0.95325
551.2	0.95644
551.4	0.95913
551.6	0.96092
551.8	0.96169
552.0	0.96101
552.2	0.95953
552.4	0.95705
552.6	0.95414
552.8	0.9517
553.0	0.94976
553.2	0.94877
553.4	0.94918
553.6	0.95002
553.8	0.95225
554.0	0.95428
554.2	0.95665
554.4	0.95811
554.6	0.95916
554.8	0.95895
555.0	0.95757
555.2	0.95599
555.4	0.95348
555.6	0.95097
555.8	0.94909
556.0	0.94785
556.2	0.94747
556.4	0.94839
556.6	0.94997
556.8	0.95224
557.0	0.95459
557.2	0.95643
557.4	0.95745
557.6	0.95829
557.8	0.95762
558.0	0.95651
558.2	0.95419
558.4	0.95243
558.6	0.95052
558.8	0.94889
559.0	0.94926
559.2	0.95007
559.4	0.95177
559.6	0.95422
559.8	0.95693
560.0	0.95899
560.2	0.96103
560.4	0.96184
560.6	0.96185
560.8	0.96061
561.0	0.95848
561.2	0.95617
561.4	0.95364
561.6	0.95179
561.8	0.95063
562.0	0.95003
562.2	0.95065
562.4	0.95199
562.6	0.95461
562.8	0.95715
563.0	0.9594
563.2	0.96068
563.4	0.96167
563.6	0.96166
563.8	0.96009
564.0	0.9585
564.2	0.95602
564.4	0.95381
564.6	0.9521
564.8	0.95117
565.0	0.95087
565.2	0.95191
565.4	0.9533
565.6	0.95564
565.8	0.9581
566.0	0.96048
566.2	0.96225
566.4	0.96313
566.6	0.96342
566.8	0.96222
567.0	0.96078
567.2	0.95839
567.4	0.95583
567.6	0.9538
567.8	0.95258
568.0	0.95146
568.2	0.95131
568.4	0.95308
568.6	0.95457
568.8	0.9564
569.0	0.95818
569.2	0.95972
569.4	0.96004
569.6	0.9601
569.8	0.95926
570.0	0.95797
570.2	0.95623
570.4	0.9536
570.6	0.95201
570.8	0.9513
571.0	0.95129
571.2	0.95185
571.4	0.9534
571.6	0.95548
571.8	0.95795
572.0	0.9602
572.2	0.96215
572.4	0.96329
572.6	0.96325
572.8	0.96287
573.0	0.96174
573.2	0.95991
573.4	0.95777
573.6	0.95612
573.8	0.95488
574.0	0.95411
574.2	0.9548
574.4	0.95577
574.6	0.95771
574.8	0.95968
575.0	0.96195
575.2	0.96407
575.4	0.96564
575.6	0.96623
575.8	0.96588
576.0	0.96503
576.2	0.96293
576.4	0.96099
576.6	0.95891
576.8	0.95683
577.0	0.95557
577.2	0.95541
577.4	0.9555
577.6	0.9573
577.8	0.9588
578.0	0.96068
578.2	0.96317
578.4	0.96493
578.6	0.96583
578.8	0.9658
579.0	0.96587
579.2	0.96431
579.4	0.96243
579.6	0.96016
579.8	0.95794
580.0	0.95581
580.2	0.95482
580.4	0.95396
580.6	0.95441
580.8	0.95559
581.0	0.95722
581.2	0.9598
581.4	0.9614
581.6	0.96305
581.8	0.96458
582.0	0.96502
582.2	0.96458
582.4	0.96346
582.6	0.96181
582.8	0.95952
583.0	0.95745
583.2	0.95614
583.4	0.95527
583.6	0.95474
583.8	0.95525
584.0	0.95667
584.2	0.95846
584.4	0.96
584.6	0.96254
584.8	0.96432
585.0	0.96599
585.2	0.96626
585.4	0.96642
585.6	0.96565
585.8	0.96425
586.0	0.96258
586.2	0.96064
586.4	0.95912
586.6	0.95827
586.8	0.95762
587.0	0.95831
587.2	0.95857
587.4	0.96028
587.6	0.96139
587.8	0.963
588.0	0.96438
588.2	0.96496
588.4	0.96537
588.6	0.96563
588.8	0.96436
589.0	0.963
589.2	0.96149
589.4	0.95994
589.6	0.959
589.8	0.95828
590.0	0.95791
590.2	0.95875
590.4	0.95996
590.6	0.96171
590.8	0.96355
591.0	0.96525
591.2	0.96702
591.4	0.96806
591.6	0.96885
591.8	0.96853
592.0	0.96742
592.2	0.96595
592.4	0.96384
592.6	0.96226
592.8	0.95983
593.0	0.95831
593.2	0.95711
593.4	0.95649
593.6	0.95686
593.8	0.95797
594.0	0.95934
594.2	0.96097
594.4	0.96253
594.6	0.96373
594.8	0.96536
595.0	0.96595
595.2	0.96599
595.4	0.96548
595.6	0.9642
595.8	0.96317
596.0	0.96166
596.2	0.96001
596.4	0.95938
596.6	0.9584
596.8	0.95794
597.0	0.95855
597.2	0.95983
597.4	0.96157
597.6	0.96328
597.8	0.96462
598.0	0.96575
598.2	0.9668
598.4	0.96723
598.6	0.96696
598.8	0.9667
599.0	0.96556
599.2	0.96447
599.4	0.9627
599.6	0.96142
599.8	0.96024
600.0	0.95987
600.2	0.96038
600.4	0.96055
600.6	0.96162
600.8	0.96324
601.0	0.96439
601.2	0.96591
601.4	0.96665
601.6	0.9671
601.8	0.9669
602.0	0.96668
602.2	0.96517
602.4	0.96413
602.6	0.96218
602.8	0.96108
603.0	0.95973
603.2	0.95931
603.4	0.95954
603.6	0.95974
603.8	0.96071
604.0	0.96265
604.2	0.96478
604.4	0.96662
604.6	0.96819
604.8	0.96963
605.0	0.96977
605.2	0.96919
605.4	0.96881
605.6	0.96748
605.8	0.96572
606.0	0.96372
606.2	0.9613
606.4	0.95883
606.6	0.95757
606.8	0.95679
607.0	0.95691
607.2	0.95745
607.4	0.95934
607.6	0.96117
607.8	0.96319
608.0	0.96712
608.2	0.96941
608.4	0.96995
608.6	0.96917
608.8	0.9681
609.0	0.96668
609.2	0.96447
609.4	0.96211
609.6	0.96129
609.8	0.95961
610.0	0.95863
610.2	0.95881
610.4	0.95958
610.6	0.96089
610.8	0.9627
611.0	0.96448
611.2	0.96642
611.4	0.96811
611.6	0.9697
611.8	0.97062
612.0	0.97002
612.2	0.96895
612.4	0.96793
612.6	0.96592
612.8	0.96324
613.0	0.96184
613.2	0.96
613.4	0.95842
613.6	0.95771
613.8	0.95779
614.0	0.95888
614.2	0.96015
614.4	0.96233
614.6	0.96437
614.8	0.96643
615.0	0.96862
615.2	0.96985
615.4	0.97075
615.6	0.97054
615.8	0.97054
616.0	0.9686
616.2	0.9668
616.4	0.96449
616.6	0.96223
616.8	0.96031
617.0	0.95843
617.2	0.95775
617.4	0.95793
617.6	0.95789
617.8	0.95972
618.0	0.9616
618.2	0.96363
618.4	0.96626
618.6	0.96828
618.8	0.96984
619.0	0.97069
619.2	0.9713
619.4	0.97086
619.6	0.97024
619.8	0.96851
620.0	0.96629
620.2	0.96442
620.4	0.96207
620.6	0.96036
620.8	0.95929
621.0	0.95847
621.2	0.95844
621.4	0.95929
621.6	0.9603
621.8	0.96235
622.0	0.96392
622.2	0.9659
622.4	0.96798
622.6	0.96876
622.8	0.96912
623.0	0.96946
623.2	0.96826
623.4	0.96696
623.6	0.96496
623.8	0.96331
624.0	0.96166
624.2	0.95962
624.4	0.95861
624.6	0.95768
624.8	0.95715
625.0	0.95807
625.2	0.9592
625.4	0.96087
625.6	0.96271
625.8	0.96475
626.0	0.96718
626.2	0.96829
626.4	0.96955
626.6	0.96987
626.8	0.96961
627.0	0.96873
627.2	0.96711
627.4	0.96533
627.6	0.96295
627.8	0.96094
628.0	0.95947
628.2	0.95817
628.4	0.95754
628.6	0.95738
628.8	0.95776
629.0	0.95922
629.2	0.96066
629.4	0.96185
629.6	0.96394
629.8	0.96609
630.0	0.96725
630.2	0.96829
630.4	0.96832
630.6	0.96752
630.8	0.96716
631.0	0.9659
631.2	0.96374
631.4	0.96185
631.6	0.96034
631.8	0.95855
632.0	0.95715
632.2	0.9566
632.4	0.95599
632.6	0.95668
632.8	0.95802
633.0	0.95823
633.2	0.96046
633.4	0.9624
633.6	0.96387
633.8	0.96512
634.0	0.96643
634.2	0.96627
634.4	0.96618
634.6	0.96561
634.8	0.96404
635.0	0.96335
635.2	0.96173
635.4	0.96007
635.6	0.95924
635.8	0.95824
636.0	0.95738
636.2	0.95791
636.4	0.95847
636.6	0.95965
636.8	0.96156
637.0	0.96322
637.2	0.96469
637.4	0.9663
637.6	0.96756
637.8	0.96817
638.0	0.96844
638.2	0.96756
638.4	0.96691
638.6	0.96494
638.8	0.96249
639.0	0.96052
639.2	0.95866
639.4	0.95617
639.6	0.95499
639.8	0.95411
640.0	0.95362
640.2	0.95434
640.4	0.95549
640.6	0.95647
640.8	0.95905
641.0	0.96167
641.2	0.96381
641.4	0.96568
641.6	0.96776
641.8	0.96846
642.0	0.96869
642.2	0.96905
642.4	0.96768
642.6	0.96618
642.8	0.96425
643.0	0.96171
643.2	0.95923
643.4	0.95742
643.6	0.95577
643.8	0.95433
644.0	0.95368
644.2	0.954
644.4	0.9544
644.6	0.95541
644.8	0.95735
645.0	0.95914
645.2	0.96131
645.4	0.96351
645.6	0.9649
645.8	0.9658
646.0	0.96644
646.2	0.96622
646.4	0.96585
646.6	0.96443
646.8	0.96283
647.0	0.96123
647.2	0.95904
647.4	0.95718
647.6	0.95626
647.8	0.95522
648.0	0.95464
648.2	0.9546
648.4	0.9558
648.6	0.95682
648.8	0.95827
649.0	0.9603
649.2	0.96181
649.4	0.9638
649.6	0.96575
649.8	0.96658
650.0	0.96746
650.2	0.96741
650.4	0.96685
650.6	0.96556
650.8	0.96401
651.0	0.9622
651.2	0.96025
651.4	0.959
651.6	0.95704
651.8	0.95617
652.0	0.95546
652.2	0.95596
652.4	0.95593
652.6	0.95696
652.8	0.9587
653.0	0.96042
653.2	0.96202
653.4	0.96349
653.6	0.96509
653.8	0.96614
654.0	0.96665
654.2	0.96681
654.4	0.96589
654.6	0.96512
654.8	0.96363
655.0	0.96213
655.2	0.96053
655.4	0.95862
655.6	0.95702
655.8	0.95613
656.0	0.9551
656.2	0.95505
656.4	0.95571
656.6	0.95658
656.8	0.95816
657.0	0.95985
657.2	0.96214
657.4	0.96398
657.6	0.96589
657.8	0.96746
658.0	0.96868
658.2	0.96904
658.4	0.96889
658.6	0.96797
658.8	0.96701
659.0	0.96557
659.2	0.96335
659.4	0.96159
659.6	0.9598
659.8	0.95806
660.0	0.95675
660.2	0.95621
660.4	0.9559
660.6	0.95556
660.8	0.95624
661.0	0.95743
661.2	0.95879
661.4	0.96059
661.6	0.96251
661.8	0.9638
662.0	0.96525
662.2	0.96628
662.4	0.96683
662.6	0.96632
662.8	0.96585
663.0	0.96458
663.2	0.96289
663.4	0.96112
663.6	0.9593
663.8	0.95736
664.0	0.95588
664.2	0.95456
664.4	0.95438
664.6	0.95357
664.8	0.95375
665.0	0.9547
665.2	0.95587
665.4	0.95757
665.6	0.95929
665.8	0.96095
666.0	0.96282
666.2	0.96407
666.4	0.96572
666.6	0.96552
666.8	0.96599
667.0	0.9657
667.2	0.96424
667.4	0.96264
667.6	0.96115
667.8	0.95899
668.0	0.95711
668.2	0.95575
668.4	0.95423
668.6	0.95335
668.8	0.95256
669.0	0.95296
669.2	0.95363
669.4	0.95442
669.6	0.95605
669.8	0.95758
670.0	0.95914
670.2	0.96075
670.4	0.96259
670.6	0.96379
670.8	0.96442
671.0	0.96492
671.2	0.96408
671.4	0.96341
671.6	0.96245
671.8	0.96078
672.0	0.95893
672.2	0.95664
672.4	0.95527
672.6	0.95365
672.8	0.95255
673.0	0.9526
673.2	0.95219
673.4	0.95101
673.6	0.95115
673.8	0.95155
674.0	0.95242
674.2	0.954
674.4	0.95616
674.6	0.95831
674.8	0.95996
675.0	0.96239
675.2	0.96394
675.4	0.96518
675.6	0.96553
675.8	0.9658
676.0	0.96517
676.2	0.96448
676.4	0.96267
676.6	0.96103
676.8	0.95855
677.0	0.95659
677.2	0.95383
677.4	0.9519
677.6	0.95103
677.8	0.94951
678.0	0.94916
678.2	0.94913
678.4	0.94943
678.6	0.95077
678.8	0.95225
679.0	0.95448
679.2	0.95669
679.4	0.95834
679.6	0.96024
679.8	0.96183
680.0	0.96279
680.2	0.96365
680.4	0.96398
680.6	0.96358
680.8	0.96263
681.0	0.96126
681.2	0.9593
681.4	0.95751
681.6	0.95605
681.8	0.95408
682.0	0.95273
682.2	0.95163
682.4	0.95084
682.6	0.95093
682.8	0.95107
683.0	0.95197
683.2	0.95323
683.4	0.95477
683.6	0.95618
683.8	0.95792
684.0	0.95936
684.2	0.9607
684.4	0.96179
684.6	0.96226
684.8	0.96213
685.0	0.96177
685.2	0.9608
685.4	0.95922
685.6	0.95768
685.8	0.95571
686.0	0.95399
686.2	0.95228
686.4	0.95086
686.6	0.94956
686.8	0.94898
687.0	0.94851
687.2	0.9488
687.4	0.94959
687.6	0.95066
687.8	0.95253
688.0	0.9544
688.2	0.95615
688.4	0.95759
688.6	0.95922
688.8	0.96066
689.0	0.96166
689.2	0.96226
689.4	0.96215
689.6	0.96178
689.8	0.96093
690.0	0.95987
690.2	0.95843
690.4	0.9569
690.6	0.95518
690.8	0.95379
691.0	0.95261
691.2	0.95191
691.4	0.95096
691.6	0.95108
691.8	0.95159
692.0	0.95257
692.2	0.95392
692.4	0.95532
692.6	0.95729
692.8	0.95871
693.0	0.96032
693.2	0.96211
693.4	0.9633
693.6	0.96377
693.8	0.96408
694.0	0.9637
694.2	0.96351
694.4	0.96223
694.6	0.96045
694.8	0.95895
695.0	0.957
695.2	0.95521
695.4	0.95333
695.6	0.9521
695.8	0.95084
696.0	0.94997
696.2	0.9503
696.4	0.95042
696.6	0.95101
696.8	0.95204
697.0	0.95371
697.2	0.95527
697.4	0.95671
697.6	0.95844
697.8	0.96015
698.0	0.96145
698.2	0.96215
698.4	0.96256
698.6	0.96213
698.8	0.96147
699.0	0.96057
699.2	0.95955
699.4	0.95771
699.6	0.95558
699.8	0.95429
700.0	0.95228
700.2	0.95065
700.4	0.94974
700.6	0.94897
700.8	0.94911
701.0	0.94911
701.2	0.94962
701.4	0.95155
701.6	0.95298
701.8	0.95477
702.0	0.95618
702.2	0.9583
702.4	0.96009
702.6	0.96168
702.8	0.96303
703.0	0.96355
703.2	0.96417
703.4	0.96409
703.6	0.96307
703.8	0.96148
704.0	0.96041
704.2	0.95869
704.4	0.95643
704.6	0.95479
704.8	0.95301
705.0	0.95117
705.2	0.95027
705.4	0.94927
705.6	0.94906
705.8	0.94922
706.0	0.95013
706.2	0.95135
706.4	0.95306
706.6	0.95499
706.8	0.95702
707.0	0.95905
707.2	0.96117
707.4	0.96293
707.6	0.96403
707.8	0.96506
708.0	0.96529
708.2	0.96474
708.4	0.96456
708.6	0.96337
708.8	0.96167
709.0	0.95976
709.2	0.95776
709.4	0.95611
709.6	0.95406
709.8	0.95258
710.0	0.95101
710.2	0.9503
710.4	0.95013
710.6	0.95019
710.8	0.95082
711.0	0.95164
711.2	0.95339
711.4	0.95554
711.6	0.95749
711.8	0.95949
712.0	0.96197
712.2	0.96333
712.4	0.96512
712.6	0.96651
712.8	0.96724
713.0	0.96733
713.2	0.96721
713.4	0.96595
713.6	0.96502
713.8	0.96312
714.0	0.961
714.2	0.95848
714.4	0.9569
714.6	0.95493
714.8	0.95332
715.0	0.9518
715.2	0.95084
715.4	0.95068
715.6	0.95083
715.8	0.95124
716.0	0.95251
716.2	0.95396
716.4	0.95527
716.6	0.9572
716.8	0.95906
717.0	0.96083
717.2	0.96285
717.4	0.96457
717.6	0.96561
717.8	0.96596
718.0	0.96623
718.2	0.96569
718.4	0.96493
718.6	0.96348
718.8	0.96202
719.0	0.96083
719.2	0.95857
719.4	0.95702
719.6	0.95515
719.8	0.95397
720.0	0.95297
720.2	0.95256
720.4	0.95196
720.6	0.95206
720.8	0.95263
721.0	0.95396
721.2	0.95538
721.4	0.95658
721.6	0.95835
721.8	0.95982
722.0	0.96143
722.2	0.96294
722.4	0.96406
722.6	0.96486
722.8	0.96471
723.0	0.96524
723.2	0.96454
723.4	0.96368
723.6	0.96198
723.8	0.96086
724.0	0.95937
724.2	0.95722
724.4	0.95546
724.6	0.95427
724.8	0.95321
725.0	0.95261
725.2	0.95206
725.4	0.95189
725.6	0.95268
725.8	0.95358
726.0	0.9554
726.2	0.95672
726.4	0.95867
726.6	0.96045
726.8	0.96293
727.0	0.96449
727.2	0.96571
727.4	0.96683
727.6	0.9678
727.8	0.9684
728.0	0.96804
728.2	0.96751
728.4	0.96671
728.6	0.96548
728.8	0.9633
729.0	0.96116
729.2	0.95958
729.4	0.95801
729.6	0.9563
729.8	0.95492
730.0	0.95407
730.2	0.95358
730.4	0.95341
730.6	0.95364
730.8	0.95392
731.0	0.95525
731.2	0.95662
731.4	0.95806
731.6	0.96033
731.8	0.96186
732.0	0.96355
732.2	0.96498
732.4	0.96595
732.6	0.96756
732.8	0.96787
733.0	0.96808
733.2	0.96832
733.4	0.9675
733.6	0.96636
733.8	0.96441
734.0	0.9631
734.2	0.96129
734.4	0.95962
734.6	0.95776
734.8	0.9565
735.0	0.95596
735.2	0.95497
735.4	0.95448
735.6	0.95393
735.8	0.95447
736.0	0.9552
736.2	0.9563
736.4	0.95763
736.6	0.95857
736.8	0.96022
737.0	0.96193
737.2	0.96401
737.4	0.96512
737.6	0.96572
737.8	0.96639
738.0	0.96588
738.2	0.96591
738.4	0.96557
738.6	0.96461
738.8	0.96291
739.0	0.96184
739.2	0.96068
739.4	0.95861
739.6	0.95694
739.8	0.95522
740.0	0.95415
740.2	0.95302
740.4	0.95217
740.6	0.95189
740.8	0.95196
741.0	0.9524
741.2	0.95369
741.4	0.95501
741.6	0.95662
741.8	0.95884
742.0	0.96067
742.2	0.96234
742.4	0.96486
742.6	0.96603
742.8	0.96744
743.0	0.96854
743.2	0.96863
743.4	0.96883
743.6	0.96795
743.8	0.96708
744.0	0.96599
744.2	0.96356
744.4	0.96276
744.6	0.96043
744.8	0.95797
745.0	0.95627
745.2	0.95443
745.4	0.95336
745.6	0.95238
745.8	0.95182
746.0	0.95139
746.2	0.95179
746.4	0.9529
746.6	0.95405
746.8	0.95544
747.0	0.95746
747.2	0.95942
747.4	0.9611
747.6	0.96338
747.8	0.96516
748.0	0.9667
748.2	0.96783
748.4	0.96808
748.6	0.96814
748.8	0.96865
749.0	0.96748
749.2	0.96674
749.4	0.96459
749.6	0.96292
749.8	0.96115
750.0	0.9589
750.2	0.9572
750.4	0.95586
750.6	0.95423
750.8	0.9531
751.0	0.95189
751.2	0.9519
751.4	0.95231
751.6	0.95278
751.8	0.9537
752.0	0.95519
752.2	0.95728
752.4	0.95852
752.6	0.96073
752.8	0.96285
753.0	0.96467
753.2	0.96604
753.4	0.96763
753.6	0.9686
753.8	0.96847
754.0	0.96864
754.2	0.96745
754.4	0.9673
754.6	0.96599
754.8	0.9646
755.0	0.96285
755.2	0.96136
755.4	0.9594
755.6	0.95792
755.8	0.95635
756.0	0.95515
756.2	0.95474
756.4	0.95476
756.6	0.95454
756.8	0.95507
757.0	0.95645
757.2	0.95752
757.4	0.95869
757.6	0.96104
757.8	0.9624
758.0	0.96438
758.2	0.96586
758.4	0.96715
758.6	0.9682
758.8	0.969
759.0	0.96921
759.2	0.9686
759.4	0.96813
759.6	0.96689
759.8	0.96507
760.0	0.96328
760.2	0.96186
760.4	0.96013
760.6	0.95826
760.8	0.95585
761.0	0.95482
761.2	0.95362
761.4	0.95287
761.6	0.95273
761.8	0.95286
762.0	0.95384
762.2	0.95438
762.4	0.95582
762.6	0.95813
762.8	0.95944
763.0	0.96208
763.2	0.9636
763.4	0.96617
763.6	0.96732
763.8	0.96938
764.0	0.96971
764.2	0.97026
764.4	0.97029
764.6	0.96943
764.8	0.96894
765.0	0.96712
765.2	0.96564
765.4	0.96359
765.6	0.96141
765.8	0.95948
766.0	0.95803
766.2	0.95605
766.4	0.95541
766.6	0.95406
766.8	0.95428
767.0	0.95409
767.2	0.95486
767.4	0.95615
767.6	0.95769
767.8	0.95963
768.0	0.96187
768.2	0.96449
768.4	0.96626
768.6	0.96808
768.8	0.97069
769.0	0.9713
769.2	0.97193
769.4	0.97246
769.6	0.97249
769.8	0.97158
770.0	0.97035
770.2	0.96851
770.4	0.96643
770.6	0.96426
770.8	0.96195
771.0	0.95964
771.2	0.9577
771.4	0.95572
771.6	0.95448
771.8	0.95366
772.0	0.95341
772.2	0.95409
772.4	0.95492
772.6	0.95616
772.8	0.95821
773.0	0.96013
773.2	0.96266
773.4	0.96462
773.6	0.96745
773.8	0.9693
774.0	0.97103
774.2	0.97208
774.4	0.97299
774.6	0.97243
774.8	0.97207
775.0	0.97108
775.2	0.96949
775.4	0.9669
775.6	0.96534
775.8	0.9625
776.0	0.95958
776.2	0.95758
776.4	0.95595
776.6	0.95463
776.8	0.95437
777.0	0.95417
777.2	0.95526
777.4	0.95637
777.6	0.95814
777.8	0.9604
778.0	0.96343
778.2	0.96608
778.4	0.9684
778.6	0.97146
778.8	0.97341
779.0	0.97484
779.2	0.97539
779.4	0.97575
779.6	0.9747
779.8	0.97381
780.0	0.97235
780.2	0.96991
780.4	0.9674
780.6	0.96449
780.8	0.96262
781.0	0.96095
781.2	0.95966
781.4	0.95885
781.6	0.95926
781.8	0.96001
782.0	0.96169
782.2	0.96299
782.4	0.96553
782.6	0.96885
782.8	0.97112
783.0	0.97318
783.2	0.97448
783.4	0.97555
783.6	0.97503
783.8	0.97389
784.0	0.97247
784.2	0.97016
784.4	0.96748
784.6	0.96575
784.8	0.96401
785.0	0.96182
785.2	0.96252
785.4	0.96312
785.6	0.96446
785.8	0.96663
786.0	0.96985
786.2	0.97232
786.4	0.97442
786.6	0.97375
786.8	0.97161
787.0	0.96741
787.2	0.96049
787.4	0.95291
787.6	0.94573
787.8	0.93987
788.0	0.93577
788.2	0.93513
788.4	0.9329
788.6	0.92356
788.8	0.89296
789.0	0.82612
789.2	0.71118
789.4	0.56461
789.6	0.37515
789.8	0.24709
790.0	0.16274
790.2	0.10719
790.4	0.0706
790.6	0.04666
790.8	0.03233
791.0	0.02292
791.2	0.01625
791.4	0.01152
791.6	0.00817
791.8	0.00585
792.0	0.00435
792.2	0.00327
792.4	0.00245
792.6	0.00184
792.8	0.00138
793.0	0.00105
793.2	8.3353e-04
793.4	6.6911e-04
793.6	5.3713e-04
793.8	4.3117e-04
794.0	3.4612e-04
794.2	2.7841e-04
794.4	2.2992e-04
794.6	1.8977e-04
794.8	1.5662e-04
795.0	1.2926e-04
795.2	1.0669e-04
795.4	8.886e-05
795.6	7.5956e-05
795.8	6.4783e-05
796.0	5.5253e-05
796.2	4.7125e-05
796.4	4.0193e-05
796.6	3.4337e-05
796.8	3.0068e-05
797.0	2.6071e-05
797.2	2.2604e-05
797.4	1.9599e-05
797.6	1.6993e-05
797.8	1.4941e-05
798.0	1.3536e-05
798.2	1.2141e-05
798.4	1.0891e-05
798.6	9.7688e-06
798.8	8.7625e-06
799.0	7.8201e-06
799.2	7.0161e-06
799.4	6.4133e-06
799.6	5.8623e-06
799.8	5.3586e-06
800.0	4.8982e-06
800.2	4.4622e-06
800.4	4.0579e-06
800.6	3.7151e-06
800.8	3.4012e-06
801.0	3.1138e-06
801.2	2.8508e-06
801.4	2.6542e-06
801.6	2.5613e-06
801.8	2.432e-06
802.0	2.3092e-06
802.2	2.1927e-06
802.4	2.082e-06
802.6	1.9566e-06
802.8	1.8252e-06
803.0	1.7435e-06
803.2	1.6654e-06
803.4	1.5909e-06
803.6	1.5197e-06
803.8	1.4653e-06
804.0	1.4345e-06
804.2	1.3873e-06
804.4	1.3417e-06
804.6	1.2975e-06
804.8	1.2549e-06
805.0	1.2045e-06
805.2	1.163e-06
805.4	1.1532e-06
805.6	1.1435e-06
805.8	1.1339e-06
806.0	1.1243e-06
806.2	1.0843e-06
806.4	1.0177e-06
806.6	1.002e-06
806.8	9.8659e-07
807.0	9.7137e-07
807.2	9.5638e-07
807.4	9.7068e-07
807.6	9.8588e-07
807.8	9.702e-07
808.0	9.5477e-07
808.2	9.3959e-07
808.4	9.2464e-07
808.6	9.2761e-07
808.8	9.6296e-07
809.0	9.8568e-07
809.2	1.0089e-06
809.4	1.0327e-06
809.6	1.0571e-06
809.8	1.0692e-06
810.0	1.0589e-06
810.2	1.0654e-06
810.4	1.0719e-06
810.6	1.0785e-06
810.8	1.0851e-06
811.0	1.1203e-06
811.2	1.1988e-06
811.4	1.2306e-06
811.6	1.2634e-06
811.8	1.2969e-06
812.0	1.3314e-06
812.2	1.3659e-06
812.4	1.4173e-06
812.6	1.4898e-06
812.8	1.5661e-06
813.0	1.6463e-06
813.2	1.7306e-06
813.4	1.7811e-06
813.6	1.7868e-06
813.8	1.8585e-06
814.0	1.9331e-06
814.2	2.0107e-06
814.4	2.0914e-06
814.6	2.1436e-06
814.8	2.2179e-06
815.0	2.4181e-06
815.2	2.6364e-06
815.4	2.8744e-06
815.6	3.1339e-06
815.8	3.38e-06
816.0	3.5883e-06
816.2	3.8702e-06
816.4	4.1742e-06
816.6	4.5021e-06
816.8	4.8558e-06
817.0	5.2426e-06
817.2	5.7511e-06
817.4	6.3066e-06
817.6	6.9159e-06
817.8	7.5839e-06
818.0	8.3165e-06
818.2	9.1268e-06
818.4	1.0123e-05
818.6	1.1323e-05
818.8	1.2665e-05
819.0	1.4167e-05
819.2	1.5846e-05
819.4	1.782e-05
819.6	2.0322e-05
819.8	2.3154e-05
820.0	2.6382e-05
820.2	3.0058e-05
820.4	3.4248e-05
820.6	3.9075e-05
820.8	4.5463e-05
821.0	5.279e-05
821.2	6.1299e-05
821.4	7.1179e-05
821.6	8.2652e-05
821.8	9.6212e-05
822.0	1.1511e-04
822.2	1.3615e-04
822.4	1.6105e-04
822.6	1.9049e-04
822.8	2.2532e-04
823.0	2.6766e-04
823.2	3.2922e-04
823.4	4.0678e-04
823.6	5.0261e-04
823.8	6.2102e-04
824.0	7.6732e-04
824.2	9.4757e-04
824.4	0.00121
824.6	0.00154
824.8	0.00196
825.0	0.00251
825.2	0.0032
825.4	0.00411
825.6	0.00546
825.8	0.00733
826.0	0.00985
826.2	0.01324
826.4	0.0178
826.6	0.02419
826.8	0.03465
827.0	0.05048
827.2	0.07354
827.4	0.10715
827.6	0.15611
827.8	0.22758
828.0	0.36676
828.2	0.50214
828.4	0.64625
828.6	0.77422
828.8	0.86499
829.0	0.91683
829.2	0.93889
829.4	0.94412
829.6	0.94338
829.8	0.94253
830.0	0.94392
830.2	0.9468
830.4	0.95204
830.6	0.95823
830.8	0.96404
831.0	0.96895
831.2	0.97168
831.4	0.97279
831.6	0.97187
831.8	0.96953
832.0	0.96551
832.2	0.96179
832.4	0.95749
832.6	0.95357
832.8	0.95043
833.0	0.94838
833.2	0.94737
833.4	0.94765
833.6	0.94886
833.8	0.95065
834.0	0.95317
834.2	0.95626
834.4	0.95956
834.6	0.96285
834.8	0.96569
835.0	0.96781
835.2	0.96988
835.4	0.97032
835.6	0.9709
835.8	0.97054
836.0	0.96985
836.2	0.96895
836.4	0.96697
836.6	0.96523
836.8	0.96366
837.0	0.96149
837.2	0.95974
837.4	0.95887
837.6	0.95771
837.8	0.95721
838.0	0.95694
838.2	0.95672
838.4	0.95716
838.6	0.95759
838.8	0.95875
839.0	0.95977
839.2	0.96052
839.4	0.96105
839.6	0.96197
839.8	0.96264
840.0	0.96278
840.2	0.96322
840.4	0.96279
840.6	0.96224
840.8	0.96213
841.0	0.96134
841.2	0.96063
841.4	0.95979
841.6	0.95872
841.8	0.95786
842.0	0.95683
842.2	0.95585
842.4	0.95565
842.6	0.95508
842.8	0.95485
843.0	0.95478
843.2	0.95493
843.4	0.95531
843.6	0.95589
843.8	0.95646
844.0	0.9573
844.2	0.95799
844.4	0.95924
844.6	0.9601
844.8	0.96067
845.0	0.96117
845.2	0.96174
845.4	0.96207
845.6	0.96235
845.8	0.96228
846.0	0.96217
846.2	0.96196
846.4	0.96176
846.6	0.96129
846.8	0.96025
847.0	0.95962
847.2	0.95888
847.4	0.9582
847.6	0.95744
847.8	0.95727
848.0	0.95652
848.2	0.95634
848.4	0.95611
848.6	0.95582
848.8	0.95615
849.0	0.9567
849.2	0.9571
849.4	0.95774
849.6	0.95838
849.8	0.95909
850.0	0.95949
850.2	0.96082
850.4	0.96167
850.6	0.96214
850.8	0.96282
851.0	0.96322
851.2	0.96371
851.4	0.96372
851.6	0.96364
851.8	0.96341
852.0	0.9632
852.2	0.96268
852.4	0.96243
852.6	0.96148
852.8	0.96073
853.0	0.96
853.2	0.95932
853.4	0.95845
853.6	0.95802
853.8	0.95701
854.0	0.95619
854.2	0.95533
854.4	0.9551
854.6	0.95469
854.8	0.9543
855.0	0.95425
855.2	0.95412
855.4	0.95465
855.6	0.9549
855.8	0.95553
856.0	0.95601
856.2	0.95677
856.4	0.95724
856.6	0.95773
856.8	0.95848
857.0	0.9593
857.2	0.9594
857.4	0.95948
857.6	0.96016
857.8	0.96046
858.0	0.96038
858.2	0.96026
858.4	0.96021
858.6	0.9598
858.8	0.95948
859.0	0.95909
859.2	0.95817
859.4	0.95755
859.6	0.95708
859.8	0.95628
860.0	0.95578
860.2	0.95497
860.4	0.95436
860.6	0.95411
860.8	0.9536
861.0	0.95346
861.2	0.95325
861.4	0.95355
861.6	0.95409
861.8	0.95441
862.0	0.95479
862.2	0.9556
862.4	0.95616
862.6	0.95705
862.8	0.95745
863.0	0.95782
863.2	0.95887
863.4	0.95964
863.6	0.96033
863.8	0.96103
864.0	0.96125
864.2	0.96149
864.4	0.9619
864.6	0.96219
864.8	0.96217
865.0	0.96242
865.2	0.96197
865.4	0.96142
865.6	0.96112
865.8	0.96033
866.0	0.96039
866.2	0.95968
866.4	0.95902
866.6	0.95861
866.8	0.95784
867.0	0.95724
867.2	0.95669
867.4	0.95625
867.6	0.95569
867.8	0.95564
868.0	0.95558
868.2	0.95573
868.4	0.95628
868.6	0.95607
868.8	0.95558
869.0	0.9564
869.2	0.95632
869.4	0.95649
869.6	0.95697
869.8	0.95749
870.0	0.95843
870.2	0.95873
870.4	0.9589
870.6	0.95891
870.8	0.95942
871.0	0.95991
871.2	0.95927
871.4	0.95954
871.6	0.96011
871.8	0.95989
872.0	0.96023
872.2	0.95951
872.4	0.9587
872.6	0.95835
872.8	0.95808
873.0	0.95774
873.2	0.95751
873.4	0.95715
873.6	0.95689
873.8	0.95624
874.0	0.95549
874.2	0.95569
874.4	0.95509
874.6	0.95533
874.8	0.95582
875.0	0.95503
875.2	0.95562
875.4	0.95549
875.6	0.95574
875.8	0.9566
876.0	0.95717
876.2	0.95719
876.4	0.95782
876.6	0.95814
876.8	0.95839
877.0	0.95907
877.2	0.95937
877.4	0.95976
877.6	0.96024
877.8	0.96032
878.0	0.96021
878.2	0.96083
878.4	0.96051
878.6	0.96055
878.8	0.96083
879.0	0.96053
879.2	0.95998
879.4	0.95972
879.6	0.9592
879.8	0.95862
880.0	0.95803
880.2	0.95742
880.4	0.95693
880.6	0.95651
880.8	0.95604
881.0	0.95531
881.2	0.95529
881.4	0.955
881.6	0.95439
881.8	0.95483
882.0	0.95511
882.2	0.95503
882.4	0.95476
882.6	0.95521
882.8	0.95515
883.0	0.95565
883.2	0.9565
883.4	0.95665
883.6	0.95765
883.8	0.95805
884.0	0.95888
884.2	0.95952
884.4	0.95971
884.6	0.9603
884.8	0.96024
885.0	0.96055
885.2	0.9611
885.4	0.96147
885.6	0.96193
885.8	0.96206
886.0	0.96124
886.2	0.96135
886.4	0.96094
886.6	0.96002
886.8	0.95971
887.0	0.95996
887.2	0.95921
887.4	0.95882
887.6	0.95844
887.8	0.95735
888.0	0.95633
888.2	0.95627
888.4	0.95586
888.6	0.95548
888.8	0.95529
889.0	0.95528
889.2	0.95482
889.4	0.95471
889.6	0.95458
889.8	0.95474
890.0	0.95512
890.2	0.95523
890.4	0.95553
890.6	0.95598
890.8	0.95647
891.0	0.95702
891.2	0.95703
891.4	0.95813
891.6	0.95877
891.8	0.9591
892.0	0.95934
892.2	0.95995
892.4	0.96062
892.6	0.96069
892.8	0.96151
893.0	0.96218
893.2	0.9624
893.4	0.96247
893.6	0.9621
893.8	0.96172
894.0	0.96135
894.2	0.96201
894.4	0.96176
894.6	0.96066
894.8	0.96052
895.0	0.95982
895.2	0.95954
895.4	0.95896
895.6	0.95854
895.8	0.95773
896.0	0.95774
896.2	0.95738
896.4	0.95656
896.6	0.95602
896.8	0.95605
897.0	0.95634
897.2	0.95574
897.4	0.95612
897.6	0.95597
897.8	0.95626
898.0	0.95645
898.2	0.957
898.4	0.95811
898.6	0.95758
898.8	0.95864
899.0	0.95923
899.2	0.95996
899.4	0.9602
899.6	0.96027
899.8	0.96101
900.0	0.96145
900.2	0.96114
900.4	0.96223
900.6	0.96171
900.8	0.96242
901.0	0.96265
901.2	0.96249
901.4	0.96235
901.6	0.96148
901.8	0.96233
902.0	0.96212
902.2	0.96115
902.4	0.96107
902.6	0.96051
902.8	0.96024
903.0	0.9592
903.2	0.95926
903.4	0.95878
903.6	0.95844
903.8	0.95835
904.0	0.95749
904.2	0.95724
904.4	0.9573
904.6	0.95662
904.8	0.95687
905.0	0.95711
905.2	0.95667
905.4	0.95705
905.6	0.95744
905.8	0.95746
906.0	0.95753
906.2	0.95836
906.4	0.95876
906.6	0.95901
906.8	0.95872
907.0	0.95937
907.2	0.9591
907.4	0.95912
907.6	0.96004
907.8	0.96047
908.0	0.96017
908.2	0.96006
908.4	0.96066
908.6	0.96
908.8	0.96012
909.0	0.95932
909.2	0.95926
909.4	0.95956
909.6	0.95967
909.8	0.95863
910.0	0.95828
910.2	0.95779
910.4	0.95686
910.6	0.95672
910.8	0.95628
911.0	0.95603
911.2	0.95559
911.4	0.95441
911.6	0.95474
911.8	0.95484
912.0	0.95446
912.2	0.95407
912.4	0.95451
912.6	0.9545
912.8	0.95498
913.0	0.95442
913.2	0.95487
913.4	0.95551
913.6	0.95566
913.8	0.95621
914.0	0.9563
914.2	0.95739
914.4	0.95768
914.6	0.95848
914.8	0.95897
915.0	0.95973
915.2	0.95997
915.4	0.96006
915.6	0.96069
915.8	0.96087
916.0	0.96159
916.2	0.96166
916.4	0.96174
916.6	0.96174
916.8	0.96149
917.0	0.96127
917.2	0.96138
917.4	0.96074
917.6	0.96041
917.8	0.95954
918.0	0.95904
918.2	0.95907
918.4	0.95782
918.6	0.95779
918.8	0.95648
919.0	0.95536
919.2	0.9547
919.4	0.95387
919.6	0.95332
919.8	0.95239
920.0	0.95224
920.2	0.95146
920.4	0.95163
920.6	0.95096
920.8	0.95065
921.0	0.95113
921.2	0.95157
921.4	0.95157
921.6	0.9514
921.8	0.95245
922.0	0.95295
922.2	0.9532
922.4	0.95363
922.6	0.95461
922.8	0.95497
923.0	0.95589
923.2	0.95662
923.4	0.95733
923.6	0.95713
923.8	0.95771
924.0	0.95877
924.2	0.95889
924.4	0.959
924.6	0.95973
924.8	0.96051
925.0	0.96019
925.2	0.96007
925.4	0.95956
925.6	0.95927
925.8	0.95945
926.0	0.95934
926.2	0.95885
926.4	0.95799
926.6	0.9577
926.8	0.95759
927.0	0.95739
927.2	0.95622
927.4	0.95505
927.6	0.95472
927.8	0.95393
928.0	0.95344
928.2	0.95365
928.4	0.95277
928.6	0.95251
928.8	0.95284
929.0	0.95259
929.2	0.95241
929.4	0.95237
929.6	0.95235
929.8	0.95262
930.0	0.95239
930.2	0.95265
930.4	0.953
930.6	0.95473
930.8	0.95328
931.0	0.95416
931.2	0.95608
931.4	0.95777
931.6	0.95501
931.8	0.95601
932.0	0.95772
932.2	0.95725
932.4	0.95747
932.6	0.95898
932.8	0.95989
933.0	0.95997
933.2	0.9592
933.4	0.95882
933.6	0.96202
933.8	0.9599
934.0	0.96011
934.2	0.95825
934.4	0.95961
934.6	0.96066
934.8	0.96082
935.0	0.95862
935.2	0.95726
935.4	0.95341
935.6	0.95879
935.8	0.95313
936.0	0.95746
936.2	0.95511
936.4	0.95313
936.6	0.95216
936.8	0.95335
937.0	0.95097
937.2	0.9513
937.4	0.95372
937.6	0.95167
937.8	0.94983
938.0	0.95087
938.2	0.95119
938.4	0.95164
938.6	0.95006
938.8	0.95222
939.0	0.95174
939.2	0.95194
939.4	0.95214
939.6	0.95308
939.8	0.95312
940.0	0.95389
940.2	0.95431
940.4	0.95537
940.6	0.95589
940.8	0.95613
941.0	0.95573
941.2	0.95807
941.4	0.9575
941.6	0.95782
941.8	0.95835
942.0	0.95963
942.2	0.95906
942.4	0.95999
942.6	0.95734
942.8	0.95772
943.0	0.96175
943.2	0.95985
943.4	0.95892
943.6	0.9588
943.8	0.95742
944.0	0.95539
944.2	0.95817
944.4	0.95787
944.6	0.95727
944.8	0.95611
945.0	0.95479
945.2	0.95457
945.4	0.95357
945.6	0.95311
945.8	0.95498
946.0	0.95146
946.2	0.95423
946.4	0.95378
946.6	0.95252
946.8	0.95211
947.0	0.95226
947.2	0.95369
947.4	0.95285
947.6	0.95376
947.8	0.9534
948.0	0.95247
948.2	0.95338
948.4	0.95651
948.6	0.9547
948.8	0.9555
949.0	0.9562
949.2	0.95594
949.4	0.95491
949.6	0.95937
949.8	0.95772
950.0	0.95688
950.2	0.95876
950.4	0.95985
950.6	0.95876
950.8	0.95846
951.0	0.95864
951.2	0.95911
951.4	0.95838
951.6	0.95762
951.8	0.95887
952.0	0.95849
952.2	0.95607
952.4	0.95916
952.6	0.95785
952.8	0.95681
953.0	0.95698
953.2	0.95602
953.4	0.95545
953.6	0.95441
953.8	0.95479
954.0	0.95432
954.2	0.954
954.4	0.95102
954.6	0.95445
954.8	0.95273
955.0	0.95259
955.2	0.95225
955.4	0.95209
955.6	0.95292
955.8	0.95292
956.0	0.95285
956.2	0.95275
956.4	0.95315
956.6	0.95329
956.8	0.95493
957.0	0.95429
957.2	0.95548
957.4	0.95599
957.6	0.95615
957.8	0.95632
958.0	0.95684
958.2	0.9583
958.4	0.95837
958.6	0.95812
958.8	0.95845
959.0	0.95906
959.2	0.95942
959.4	0.95941
959.6	0.95926
959.8	0.9593
960.0	0.95951
960.2	0.95967
960.4	0.95872
960.6	0.95909
960.8	0.95901
961.0	0.95822
961.2	0.95784
961.4	0.95702
961.6	0.9567
961.8	0.95629
962.0	0.95549
962.2	0.95503
962.4	0.95472
962.6	0.95365
962.8	0.95401
963.0	0.95361
963.2	0.95273
963.4	0.95231
963.6	0.95119
963.8	0.9517
964.0	0.95137
964.2	0.95131
964.4	0.95117
964.6	0.95098
964.8	0.95078
965.0	0.95097
965.2	0.95151
965.4	0.95174
965.6	0.95196
965.8	0.95281
966.0	0.9525
966.2	0.95301
966.4	0.95368
966.6	0.9541
966.8	0.95516
967.0	0.95534
967.2	0.95586
967.4	0.95644
967.6	0.95731
967.8	0.95811
968.0	0.95769
968.2	0.95814
968.4	0.95894
968.6	0.95931
968.8	0.95941
969.0	0.95906
969.2	0.95907
969.4	0.95918
969.6	0.95952
969.8	0.95865
970.0	0.95855
970.2	0.95868
970.4	0.95857
970.6	0.95753
970.8	0.95654
971.0	0.95607
971.2	0.95662
971.4	0.95561
971.6	0.95533
971.8	0.95468
972.0	0.95453
972.2	0.95515
972.4	0.95458
972.6	0.95317
972.8	0.95313
973.0	0.95221
973.2	0.95165
973.4	0.95222
973.6	0.95216
973.8	0.95164
974.0	0.95189
974.2	0.95241
974.4	0.95289
974.6	0.95128
974.8	0.95241
975.0	0.95348
975.2	0.95365
975.4	0.95455
975.6	0.95415
975.8	0.95543
976.0	0.95462
976.2	0.95584
976.4	0.95624
976.6	0.95704
976.8	0.95756
977.0	0.95837
977.2	0.95849
977.4	0.95949
977.6	0.95943
977.8	0.95922
978.0	0.95983
978.2	0.96083
978.4	0.96036
978.6	0.96018
978.8	0.96023
979.0	0.95994
979.2	0.96086
979.4	0.96083
979.6	0.95939
979.8	0.959
980.0	0.9593
980.2	0.95918
980.4	0.9581
980.6	0.95788
980.8	0.9573
981.0	0.95665
981.2	0.9568
981.4	0.95562
981.6	0.95519
981.8	0.95439
982.0	0.95419
982.2	0.95409
982.4	0.95334
982.6	0.95298
982.8	0.95236
983.0	0.95233
983.2	0.95282
983.4	0.95244
983.6	0.95234
983.8	0.9517
984.0	0.95219
984.2	0.95239
984.4	0.95294
984.6	0.95369
984.8	0.95438
985.0	0.95445
985.2	0.95402
985.4	0.95506
985.6	0.95556
985.8	0.95566
986.0	0.9567
986.2	0.95754
986.4	0.95799
986.6	0.95818
986.8	0.95916
987.0	0.95955
987.2	0.95912
987.4	0.95902
987.6	0.95953
987.8	0.96003
988.0	0.96031
988.2	0.96088
988.4	0.96089
988.6	0.96073
988.8	0.96053
989.0	0.96042
989.2	0.95973
989.4	0.95941
989.6	0.95881
989.8	0.95924
990.0	0.9594
990.2	0.95807
990.4	0.95767
990.6	0.95748
990.8	0.95664
991.0	0.95546
991.2	0.95537
991.4	0.95499
991.6	0.95387
991.8	0.95322
992.0	0.95332
992.2	0.95242
992.4	0.95223
992.6	0.95292
992.8	0.95275
993.0	0.95192
993.2	0.95245
993.4	0.95211
993.6	0.95274
993.8	0.95265
994.0	0.95309
994.2	0.95301
994.4	0.95324
994.6	0.95383
994.8	0.95493
995.0	0.95474
995.2	0.95498
995.4	0.95491
995.6	0.95539
995.8	0.95652
996.0	0.95711
996.2	0.95847
996.4	0.95866
996.6	0.95856
996.8	0.95858
997.0	0.95856
997.2	0.95901
997.4	0.96007
997.6	0.95975
997.8	0.95979
998.0	0.95959
998.2	0.95873
998.4	0.95914
998.6	0.95946
998.8	0.96027
999.0	0.96028
999.2	0.95988
999.4	0.95978
999.6	0.95795
999.8	0.95805
1000.0	0.95456
1000.2	0.95032
1000.4	0.94966
1000.6	0.94889
1000.8	0.94863
1001.0	0.94891
1001.2	0.94803
1001.4	0.94778
1001.6	0.94681
1001.8	0.94578
1002.0	0.94617
1002.2	0.9462
1002.4	0.94604
1002.6	0.94609
1002.8	0.94575
1003.0	0.9454
1003.2	0.94508
1003.4	0.94563
1003.6	0.94526
1003.8	0.94614
1004.0	0.94691
1004.2	0.94636
1004.4	0.94707
1004.6	0.94743
1004.8	0.94763
1005.0	0.94837
1005.2	0.94863
1005.4	0.94957
1005.6	0.95013
1005.8	0.95072
1006.0	0.95129
1006.2	0.95098
1006.4	0.95147
1006.6	0.95237
1006.8	0.95251
1007.0	0.95267
1007.2	0.95367
1007.4	0.95285
1007.6	0.95316
1007.8	0.95319
1008.0	0.95293
1008.2	0.95329
1008.4	0.95397
1008.6	0.95301
1008.8	0.953
1009.0	0.95249
1009.2	0.95199
1009.4	0.95142
1009.6	0.95115
1009.8	0.95096
1010.0	0.9504
1010.2	0.95024
1010.4	0.94923
1010.6	0.94878
1010.8	0.94819
1011.0	0.94747
1011.2	0.94704
1011.4	0.94686
1011.6	0.94633
1011.8	0.94629
1012.0	0.94627
1012.2	0.94573
1012.4	0.94586
1012.6	0.94539
1012.8	0.94481
1013.0	0.94532
1013.2	0.94548
1013.4	0.94526
1013.6	0.94568
1013.8	0.94558
1014.0	0.946
1014.2	0.94658
1014.4	0.94657
1014.6	0.94692
1014.8	0.94757
1015.0	0.94786
1015.2	0.9483
1015.4	0.94946
1015.6	0.94923
1015.8	0.94964
1016.0	0.95008
1016.2	0.95004
1016.4	0.95091
1016.6	0.95147
1016.8	0.95153
1017.0	0.95208
1017.2	0.9526
1017.4	0.95235
1017.6	0.95279
1017.8	0.95241
1018.0	0.95245
1018.2	0.95191
1018.4	0.95252
1018.6	0.95182
1018.8	0.95214
1019.0	0.95178
1019.2	0.95173
1019.4	0.95083
1019.6	0.95067
1019.8	0.95034
1020.0	0.94954
1020.2	0.94961
1020.4	0.94895
1020.6	0.9487
1020.8	0.94838
1021.0	0.94797
1021.2	0.94712
1021.4	0.94677
1021.6	0.94635
1021.8	0.94553
1022.0	0.94533
1022.2	0.94537
1022.4	0.94474
1022.6	0.94533
1022.8	0.9445
1023.0	0.94491
1023.2	0.94474
1023.4	0.94417
1023.6	0.94496
1023.8	0.94451
1024.0	0.94426
1024.2	0.94518
1024.4	0.94514
1024.6	0.94562
1024.8	0.94572
1025.0	0.94697
1025.2	0.94675
1025.4	0.94572
1025.6	0.94713
1025.8	0.94749
1026.0	0.94841
1026.2	0.94886
1026.4	0.94871
1026.6	0.94954
1026.8	0.95031
1027.0	0.95036
1027.2	0.95067
1027.4	0.9505
1027.6	0.95089
1027.8	0.9519
1028.0	0.9503
1028.2	0.9512
1028.4	0.95123
1028.6	0.95099
1028.8	0.95094
1029.0	0.95107
1029.2	0.95068
1029.4	0.95085
1029.6	0.94988
1029.8	0.95039
1030.0	0.94968
1030.2	0.94879
1030.4	0.94828
1030.6	0.94677
1030.8	0.94706
1031.0	0.94641
1031.2	0.94616
1031.4	0.94618
1031.6	0.94547
1031.8	0.94632
1032.0	0.94569
1032.2	0.9447
1032.4	0.94474
1032.6	0.94472
1032.8	0.94433
1033.0	0.94415
1033.2	0.94443
1033.4	0.94441
1033.6	0.94348
1033.8	0.94424
1034.0	0.94376
1034.2	0.94497
1034.4	0.94542
1034.6	0.9456
1034.8	0.94594
1035.0	0.94681
1035.2	0.94608
1035.4	0.94689
1035.6	0.94748
1035.8	0.9468
1036.0	0.94815
1036.2	0.94861
1036.4	0.9486
1036.6	0.94923
1036.8	0.94952
1037.0	0.95005
1037.2	0.95054
1037.4	0.95129
1037.6	0.95186
1037.8	0.95101
1038.0	0.95272
1038.2	0.95177
1038.4	0.95186
1038.6	0.95243
1038.8	0.95264
1039.0	0.95244
1039.2	0.95236
1039.4	0.95187
1039.6	0.95018
1039.8	0.95112
1040.0	0.95082
1040.2	0.9505
1040.4	0.95032
1040.6	0.9498
1040.8	0.9503
1041.0	0.9497
1041.2	0.94845
1041.4	0.94824
1041.6	0.94811
1041.8	0.94667
1042.0	0.94583
1042.2	0.9457
1042.4	0.94519
1042.6	0.94514
1042.8	0.94516
1043.0	0.94438
1043.2	0.94328
1043.4	0.94371
1043.6	0.94399
1043.8	0.9442
1044.0	0.94279
1044.2	0.94307
1044.4	0.94432
1044.6	0.94407
1044.8	0.94291
1045.0	0.9433
1045.2	0.94242
1045.4	0.9434
1045.6	0.9436
1045.8	0.94412
1046.0	0.94386
1046.2	0.9457
1046.4	0.94571
1046.6	0.9453
1046.8	0.94598
1047.0	0.94685
1047.2	0.94671
1047.4	0.94773
1047.6	0.94803
1047.8	0.94841
1048.0	0.94944
1048.2	0.94898
1048.4	0.9499
1048.6	0.94986
1048.8	0.94998
1049.0	0.95012
1049.2	0.94943
1049.4	0.94938
1049.6	0.94989
1049.8	0.95015
1050.0	0.94912
1050.2	0.94915
1050.4	0.9495
1050.6	0.94894
1050.8	0.9494
1051.0	0.94794
1051.2	0.94915
1051.4	0.94839
1051.6	0.94796
1051.8	0.94787
1052.0	0.94661
1052.2	0.94617
1052.4	0.94575
1052.6	0.94569
1052.8	0.94568
1053.0	0.94474
1053.2	0.94475
1053.4	0.94512
1053.6	0.94305
1053.8	0.94467
1054.0	0.94314
1054.2	0.94168
1054.4	0.94275
1054.6	0.94164
1054.8	0.94261
1055.0	0.94181
1055.2	0.94212
1055.4	0.94288
1055.6	0.94225
1055.8	0.94209
1056.0	0.94226
1056.2	0.94305
1056.4	0.9427
1056.6	0.9443
1056.8	0.94376
1057.0	0.9447
1057.2	0.94469
1057.4	0.94365
1057.6	0.94572
1057.8	0.9458
1058.0	0.94644
1058.2	0.94699
1058.4	0.94715
1058.6	0.94772
1058.8	0.94879
1059.0	0.9485
1059.2	0.95018
1059.4	0.94933
1059.6	0.94987
1059.8	0.94942
1060.0	0.95059
1060.2	0.95076
1060.4	0.95058
1060.6	0.95073
1060.8	0.95102
1061.0	0.95026
1061.2	0.95105
1061.4	0.95016
1061.6	0.95105
1061.8	0.95081
1062.0	0.95002
1062.2	0.94891
1062.4	0.94976
1062.6	0.94787
1062.8	0.94907
1063.0	0.9489
1063.2	0.94626
1063.4	0.94581
1063.6	0.94696
1063.8	0.94583
1064.0	0.94573
1064.2	0.94475
1064.4	0.94469
1064.6	0.94455
1064.8	0.94473
1065.0	0.9441
1065.2	0.94255
1065.4	0.94224
1065.6	0.94269
1065.8	0.94315
1066.0	0.94122
1066.2	0.94313
1066.4	0.94243
1066.6	0.94239
1066.8	0.94179
1067.0	0.94245
1067.2	0.94205
1067.4	0.9428
1067.6	0.94218
1067.8	0.94464
1068.0	0.94425
1068.2	0.94433
1068.4	0.94479
1068.6	0.94438
1068.8	0.94472
1069.0	0.94473
1069.2	0.94581
1069.4	0.94592
1069.6	0.94644
1069.8	0.94608
1070.0	0.94817
1070.2	0.94894
1070.4	0.94918
1070.6	0.94829
1070.8	0.9482
1071.0	0.95071
1071.2	0.94887
1071.4	0.94916
1071.6	0.94963
1071.8	0.95047
1072.0	0.9492
1072.2	0.94976
1072.4	0.95007
1072.6	0.9491
1072.8	0.94786
1073.0	0.94969
1073.2	0.94966
1073.4	0.9495
1073.6	0.94807
1073.8	0.9487
1074.0	0.9478
1074.2	0.94815
1074.4	0.94795
1074.6	0.94684
1074.8	0.94674
1075.0	0.94695
1075.2	0.94512
1075.4	0.94527
1075.6	0.94543
1075.8	0.94375
1076.0	0.94384
1076.2	0.94329
1076.4	0.94357
1076.6	0.94372
1076.8	0.94287
1077.0	0.9425
1077.2	0.94323
1077.4	0.94308
1077.6	0.94266
1077.8	0.94186
1078.0	0.94327
1078.2	0.94234
1078.4	0.94248
1078.6	0.94457
1078.8	0.94392
1079.0	0.94364
1079.2	0.94458
1079.4	0.94254
1079.6	0.94502
1079.8	0.94531
1080.0	0.94514
1080.2	0.94403
1080.4	0.94655
1080.6	0.94646
1080.8	0.94776
1081.0	0.94619
1081.2	0.94734
1081.4	0.94622
1081.6	0.94769
1081.8	0.94786
1082.0	0.9481
1082.2	0.94785
1082.4	0.94923
1082.6	0.94803
1082.8	0.94887
1083.0	0.94784
1083.2	0.94888
1083.4	0.948
1083.6	0.94939
1083.8	0.94929
1084.0	0.94907
1084.2	0.94831
1084.4	0.94811
1084.6	0.94836
1084.8	0.94876
1085.0	0.94818
1085.2	0.94648
1085.4	0.94769
1085.6	0.94581
1085.8	0.94604
1086.0	0.94565
1086.2	0.94662
1086.4	0.94583
1086.6	0.94562
1086.8	0.9447
1087.0	0.94469
1087.2	0.94592
1087.4	0.94373
1087.6	0.9432
1087.8	0.94408
1088.0	0.94251
1088.2	0.94421
1088.4	0.94459
1088.6	0.94255
1088.8	0.9423
1089.0	0.94284
1089.2	0.94296
1089.4	0.94293
1089.6	0.94302
1089.8	0.94181
1090.0	0.94396
1090.2	0.94395
1090.4	0.94435
1090.6	0.94555
1090.8	0.94387
1091.0	0.94391
1091.2	0.94543
1091.4	0.94501
1091.6	0.94494
1091.8	0.94525
1092.0	0.94582
1092.2	0.94558
1092.4	0.94602
1092.6	0.94704
1092.8	0.94726
1093.0	0.94751
1093.2	0.94939
1093.4	0.95128
1093.6	0.95037
1093.8	0.9509
1094.0	0.94976
1094.2	0.95071
1094.4	0.94913
1094.6	0.95001
1094.8	0.95189
1095.0	0.95149
1095.2	0.94953
1095.4	0.94944
1095.6	0.9479
1095.8	0.94987
1096.0	0.9499
1096.2	0.94882
1096.4	0.94819
1096.6	0.94844
1096.8	0.94948
1097.0	0.94879
1097.2	0.94632
1097.4	0.94717
1097.6	0.94881
1097.8	0.94674
1098.0	0.9462
1098.2	0.94765
1098.4	0.94644
1098.6	0.94515
1098.8	0.94567
1099.0	0.94489
1099.2	0.94475
1099.4	0.94463
1099.6	0.94269
1099.8	0.94292
1100.0	0.94215
1100.2	0.94464
1100.4	0.94234
1100.6	0.9435
1100.8	0.94179
1101.0	0.94176
1101.2	0.94349
1101.4	0.94422
1101.6	0.94373
1101.8	0.94112
1102.0	0.94312
1102.2	0.94265
1102.4	0.94272
1102.6	0.94279
1102.8	0.94151
1103.0	0.94342
1103.2	0.9426
1103.4	0.94363
1103.6	0.94071
1103.8	0.94315
1104.0	0.94093
1104.2	0.94286
1104.4	0.9444
1104.6	0.94323
1104.8	0.94573
1105.0	0.94485
1105.2	0.94554
1105.4	0.9494
1105.6	0.95112
1105.8	0.94724
1106.0	0.94662
1106.2	0.94666
1106.4	0.94726
1106.6	0.94592
1106.8	0.94791
1107.0	0.9463
1107.2	0.94636
1107.4	0.9467
1107.6	0.94765
1107.8	0.94441
1108.0	0.9504
1108.2	0.95149
1108.4	0.94741
1108.6	0.94757
1108.8	0.94722
1109.0	0.94803
1109.2	0.94521
1109.4	0.94565
1109.6	0.94689
1109.8	0.94545
1110.0	0.94706
1110.2	0.94515
1110.4	0.94401
1110.6	0.94394
1110.8	0.9441
1111.0	0.94352
1111.2	0.94347
1111.4	0.94209
1111.6	0.94279
1111.8	0.94306
1112.0	0.94213
1112.2	0.94029
1112.4	0.93945
1112.6	0.94081
1112.8	0.93959
1113.0	0.94178
1113.2	0.94072
1113.4	0.94213
1113.6	0.93976
1113.8	0.94079
1114.0	0.94006
1114.2	0.94187
1114.4	0.93949
1114.6	0.93971
1114.8	0.94142
1115.0	0.94048
1115.2	0.94126
1115.4	0.94516
1115.6	0.9442
1115.8	0.94571
1116.0	0.94385
1116.2	0.94442
1116.4	0.94317
1116.6	0.94355
1116.8	0.94379
1117.0	0.94499
1117.2	0.94568
1117.4	0.94267
1117.6	0.94936
1117.8	0.94324
1118.0	0.94738
1118.2	0.94668
1118.4	0.94903
1118.6	0.94842
1118.8	0.94699
1119.0	0.94589
1119.2	0.94663
1119.4	0.94849
1119.6	0.9485
1119.8	0.94246
1120.0	0.96916
1120.2	0.96884
1120.4	0.96853
1120.6	0.96821
1120.8	0.96789
1121.0	0.96754
1121.2	0.96645
1121.4	0.96536
1121.6	0.96427
1121.8	0.96318
1122.0	0.96209
1122.2	0.96108
1122.4	0.96006
1122.6	0.95905
1122.8	0.95804
1123.0	0.95708
1123.2	0.9571
1123.4	0.95712
1123.6	0.95714
1123.8	0.95716
1124.0	0.95718
1124.2	0.95717
1124.4	0.95717
1124.6	0.95716
1124.8	0.95715
1125.0	0.95714
1125.2	0.95714
1125.4	0.95713
1125.6	0.95712
1125.8	0.95711
1126.0	0.95711
1126.2	0.95737
1126.4	0.95764
1126.6	0.9579
1126.8	0.95816
1127.0	0.95842
1127.2	0.95831
1127.4	0.9582
1127.6	0.95809
1127.8	0.95797
1128.0	0.95789
1128.2	0.95852
1128.4	0.95915
1128.6	0.95979
1128.8	0.96042
1129.0	0.96105
1129.2	0.96145
1129.4	0.96185
1129.6	0.96225
1129.8	0.96265
1130.0	0.96304
1130.2	0.96336
1130.4	0.96369
1130.6	0.96401
1130.8	0.96433
1131.0	0.96465
1131.2	0.9648
1131.4	0.96494
1131.6	0.96509
1131.8	0.96523
1132.0	0.96537
1132.2	0.96533
1132.4	0.9653
1132.6	0.96526
1132.8	0.96523
1133.0	0.96519
1133.2	0.96508
1133.4	0.96498
1133.6	0.96487
1133.8	0.96477
1134.0	0.96466
1134.2	0.96422
1134.4	0.96379
1134.6	0.96336
1134.8	0.96293
1135.0	0.96251
1135.2	0.9623
1135.4	0.96209
1135.6	0.96189
1135.8	0.96168
1136.0	0.96147
1136.2	0.96121
1136.4	0.96095
1136.6	0.96069
1136.8	0.96043
1137.0	0.96017
1137.2	0.95995
1137.4	0.95974
1137.6	0.95952
1137.8	0.95931
1138.0	0.9591
1138.2	0.95897
1138.4	0.95885
1138.6	0.95872
1138.8	0.9586
1139.0	0.95848
1139.2	0.95839
1139.4	0.95831
1139.6	0.95822
1139.8	0.95813
1140.0	0.95806
1140.2	0.95842
1140.4	0.95879
1140.6	0.95915
1140.8	0.95951
1141.0	0.95987
1141.2	0.96016
1141.4	0.96044
1141.6	0.96073
1141.8	0.96101
1142.0	0.96131
1142.2	0.96187
1142.4	0.96242
1142.6	0.96298
1142.8	0.96353
1143.0	0.96405
1143.2	0.96347
1143.4	0.9629
1143.6	0.96232
1143.8	0.96175
1144.0	0.9612
1144.2	0.96231
1144.4	0.96342
1144.6	0.96453
1144.8	0.96564
1145.0	0.96671
1145.2	0.96683
1145.4	0.96694
1145.6	0.96706
1145.8	0.96717
1146.0	0.96728
1146.2	0.9669
1146.4	0.96653
1146.6	0.96616
1146.8	0.96579
1147.0	0.96542
1147.2	0.96509
1147.4	0.96475
1147.6	0.96441
1147.8	0.96408
1148.0	0.96374
1148.2	0.9635
1148.4	0.96325
1148.6	0.963
1148.8	0.96275
1149.0	0.96249
1149.2	0.96171
1149.4	0.96094
1149.6	0.96016
1149.8	0.95939
1150.0	0.95863
1150.2	0.95853
1150.4	0.95844
1150.6	0.95835
1150.8	0.95826
1151.0	0.95819
1151.2	0.95854
1151.4	0.95888
1151.6	0.95922
1151.8	0.95957
1152.0	0.9599
1152.2	0.9599
1152.4	0.95991
1152.6	0.95991
1152.8	0.95992
1153.0	0.95993
1153.2	0.96015
1153.4	0.96038
1153.6	0.96061
1153.8	0.96083
1154.0	0.96106
1154.2	0.96147
1154.4	0.96188
1154.6	0.96229
1154.8	0.9627
1155.0	0.9631
1155.2	0.96323
1155.4	0.96335
1155.6	0.96348
1155.8	0.9636
1156.0	0.96373
1156.2	0.96399
1156.4	0.96426
1156.6	0.96452
1156.8	0.96478
1157.0	0.96504
1157.2	0.96527
1157.4	0.96549
1157.6	0.96572
1157.8	0.96595
1158.0	0.96617
1158.2	0.96651
1158.4	0.96684
1158.6	0.96717
1158.8	0.96751
1159.0	0.96782
1159.2	0.96766
1159.4	0.9675
1159.6	0.96733
1159.8	0.96717
1160.0	0.967
1160.2	0.96636
1160.4	0.96573
1160.6	0.96509
1160.8	0.96446
1161.0	0.96383
1161.2	0.96354
1161.4	0.96325
1161.6	0.96296
1161.8	0.96267
1162.0	0.96238
1162.2	0.96243
1162.4	0.96247
1162.6	0.96251
1162.8	0.96255
1163.0	0.96258
1163.2	0.96223
1163.4	0.96187
1163.6	0.96151
1163.8	0.96115
1164.0	0.9608
1164.2	0.96055
1164.4	0.9603
1164.6	0.96005
1164.8	0.9598
1165.0	0.95955
1165.2	0.95926
1165.4	0.95897
1165.6	0.95868
1165.8	0.95839
1166.0	0.95812
1166.2	0.95845
1166.4	0.95877
1166.6	0.9591
1166.8	0.95942
1167.0	0.95975
1167.2	0.96018
1167.4	0.96061
1167.6	0.96104
1167.8	0.96147
1168.0	0.9619
1168.2	0.96234
1168.4	0.96278
1168.6	0.96321
1168.8	0.96365
1169.0	0.96409
1169.2	0.96445
1169.4	0.96482
1169.6	0.96519
1169.8	0.96556
1170.0	0.96593
1170.2	0.96628
1170.4	0.96662
1170.6	0.96697
1170.8	0.96731
1171.0	0.96766
1171.2	0.96762
1171.4	0.96759
1171.6	0.96755
1171.8	0.96752
1172.0	0.96748
1172.2	0.96745
1172.4	0.96741
1172.6	0.96738
1172.8	0.96734
1173.0	0.96731
1173.2	0.96716
1173.4	0.96701
1173.6	0.96686
1173.8	0.96671
1174.0	0.96656
1174.2	0.9664
1174.4	0.96623
1174.6	0.96607
1174.8	0.96591
1175.0	0.96574
1175.2	0.96561
1175.4	0.96548
1175.6	0.96535
1175.8	0.96522
1176.0	0.96509
1176.2	0.96464
1176.4	0.9642
1176.6	0.96376
1176.8	0.96331
1177.0	0.96287
1177.2	0.96278
1177.4	0.96269
1177.6	0.96261
1177.8	0.96252
1178.0	0.96243
1178.2	0.96216
1178.4	0.96189
1178.6	0.96162
1178.8	0.96135
1179.0	0.96108
1179.2	0.96124
1179.4	0.96139
1179.6	0.96155
1179.8	0.9617
1180.0	0.96186
1180.2	0.96206
1180.4	0.96225
1180.6	0.96245
1180.8	0.96264
1181.0	0.96284
1181.2	0.96295
1181.4	0.96306
1181.6	0.96317
1181.8	0.96329
1182.0	0.96341
1182.2	0.96394
1182.4	0.96446
1182.6	0.96499
1182.8	0.96552
1183.0	0.96604
1183.2	0.96635
1183.4	0.96666
1183.6	0.96696
1183.8	0.96727
1184.0	0.96758
1184.2	0.96796
1184.4	0.96833
1184.6	0.96871
1184.8	0.96908
1185.0	0.96945
1185.2	0.96951
1185.4	0.96957
1185.6	0.96963
1185.8	0.96969
1186.0	0.96974
1186.2	0.96975
1186.4	0.96975
1186.6	0.96976
1186.8	0.96976
1187.0	0.96976
1187.2	0.9695
1187.4	0.96923
1187.6	0.96897
1187.8	0.9687
1188.0	0.96844
1188.2	0.96807
1188.4	0.9677
1188.6	0.96733
1188.8	0.96696
1189.0	0.96659
1189.2	0.96621
1189.4	0.96583
1189.6	0.96545
1189.8	0.96507
1190.0	0.9647
1190.2	0.9645
1190.4	0.9643
1190.6	0.9641
1190.8	0.9639
1191.0	0.96369
1191.2	0.96339
1191.4	0.96309
1191.6	0.96279
1191.8	0.96249
1192.0	0.96219
1192.2	0.96183
1192.4	0.96147
1192.6	0.9611
1192.8	0.96074
1193.0	0.96039
1193.2	0.96054
1193.4	0.9607
1193.6	0.96085
1193.8	0.961
1194.0	0.96114
1194.2	0.96113
1194.4	0.96111
1194.6	0.9611
1194.8	0.96109
1195.0	0.96108
1195.2	0.96133
1195.4	0.96158
1195.6	0.96183
1195.8	0.96208
1196.0	0.96234
1196.2	0.96304
1196.4	0.96373
1196.6	0.96443
1196.8	0.96512
1197.0	0.96581
1197.2	0.96621
1197.4	0.96661
1197.6	0.96701
1197.8	0.96741
1198.0	0.96781
1198.2	0.96793
1198.4	0.96805
1198.6	0.96818
1198.8	0.9683
1199.0	0.96842
1199.2	0.96852
1199.4	0.96862
1199.6	0.96872
1199.8	0.96882
1200.0	0.96892
1200.2	0.96904
1200.4	0.96916
1200.6	0.96929
1200.8	0.96941
1201.0	0.96953
1201.2	0.96938
1201.4	0.96922
1201.6	0.96907
1201.8	0.96891
1202.0	0.96876
1202.2	0.96875
1202.4	0.96873
1202.6	0.96872
1202.8	0.9687
1203.0	0.96868
1203.2	0.96818
1203.4	0.96769
1203.6	0.96719
1203.8	0.9667
1204.0	0.96622
1204.2	0.96598
1204.4	0.96575
1204.6	0.96551
1204.8	0.96528
1205.0	0.96504
1205.2	0.96474
1205.4	0.96443
1205.6	0.96412
1205.8	0.96381
1206.0	0.96352
1206.2	0.96346
1206.4	0.96341
1206.6	0.96335
1206.8	0.9633
1207.0	0.96325
1207.2	0.96313
1207.4	0.96302
1207.6	0.9629
1207.8	0.96279
1208.0	0.96268
1208.2	0.96277
1208.4	0.96286
1208.6	0.96295
1208.8	0.96303
1209.0	0.96312
1209.2	0.96331
1209.4	0.9635
1209.6	0.96369
1209.8	0.96388
1210.0	0.96407
1210.2	0.96447
1210.4	0.96486
1210.6	0.96526
1210.8	0.96566
1211.0	0.96605
1211.2	0.96632
1211.4	0.96659
1211.6	0.96686
1211.8	0.96713
1212.0	0.96741
1212.2	0.96785
1212.4	0.9683
1212.6	0.96874
1212.8	0.96918
1213.0	0.96961
1213.2	0.96976
1213.4	0.9699
1213.6	0.97005
1213.8	0.97019
1214.0	0.97034
1214.2	0.97049
1214.4	0.97065
1214.6	0.9708
1214.8	0.97096
1215.0	0.97111
1215.2	0.97126
1215.4	0.97141
1215.6	0.97157
1215.8	0.97172
1216.0	0.97186
1216.2	0.97165
1216.4	0.97144
1216.6	0.97123
1216.8	0.97102
1217.0	0.97081
1217.2	0.97057
1217.4	0.97032
1217.6	0.97007
1217.8	0.96983
1218.0	0.96957
1218.2	0.96913
1218.4	0.96869
1218.6	0.96825
1218.8	0.96781
1219.0	0.96737
1219.2	0.96697
1219.4	0.96657
1219.6	0.96617
1219.8	0.96576
1220.0	0.96536
1220.2	0.96491
1220.4	0.96447
1220.6	0.96403
1220.8	0.96358
1221.0	0.96315
1221.2	0.96302
1221.4	0.9629
1221.6	0.96278
1221.8	0.96265
1222.0	0.96253
1222.2	0.96273
1222.4	0.96293
1222.6	0.96313
1222.8	0.96333
1223.0	0.96353
1223.2	0.96382
1223.4	0.96412
1223.6	0.96441
1223.8	0.9647
1224.0	0.965
1224.2	0.96529
1224.4	0.96558
1224.6	0.96587
1224.8	0.96615
1225.0	0.96644
1225.2	0.96673
1225.4	0.96701
1225.6	0.96729
1225.8	0.96758
1226.0	0.96786
1226.2	0.96808
1226.4	0.9683
1226.6	0.96852
1226.8	0.96874
1227.0	0.96896
1227.2	0.96943
1227.4	0.9699
1227.6	0.97037
1227.8	0.97083
1228.0	0.9713
1228.2	0.97166
1228.4	0.97203
1228.6	0.9724
1228.8	0.97276
1229.0	0.97313
1229.2	0.97336
1229.4	0.9736
1229.6	0.97384
1229.8	0.97408
1230.0	0.97431
1230.2	0.97413
1230.4	0.97395
1230.6	0.97377
1230.8	0.97359
1231.0	0.97342
1231.2	0.97315
1231.4	0.97288
1231.6	0.97262
1231.8	0.97235
1232.0	0.97209
1232.2	0.972
1232.4	0.9719
1232.6	0.97181
1232.8	0.97171
1233.0	0.97161
1233.2	0.97129
1233.4	0.97097
1233.6	0.97065
1233.8	0.97033
1234.0	0.97
1234.2	0.96955
1234.4	0.96909
1234.6	0.96864
1234.8	0.96818
1235.0	0.96773
1235.2	0.96717
1235.4	0.96662
1235.6	0.96606
1235.8	0.96551
1236.0	0.96496
1236.2	0.96506
1236.4	0.96516
1236.6	0.96526
1236.8	0.96536
1237.0	0.96546
1237.2	0.96558
1237.4	0.96571
1237.6	0.96583
1237.8	0.96596
1238.0	0.96607
1238.2	0.96592
1238.4	0.96578
1238.6	0.96564
1238.8	0.96549
1239.0	0.96536
1239.2	0.96552
1239.4	0.96569
1239.6	0.96585
1239.8	0.96601
1240.0	0.96618
1240.2	0.96675
1240.4	0.96732
1240.6	0.96789
1240.8	0.96846
1241.0	0.96902
1241.2	0.96929
1241.4	0.96956
1241.6	0.96982
1241.8	0.97009
1242.0	0.97035
1242.2	0.97043
1242.4	0.97051
1242.6	0.97059
1242.8	0.97066
1243.0	0.97075
1243.2	0.97108
1243.4	0.97141
1243.6	0.97174
1243.8	0.97207
1244.0	0.9724
1244.2	0.97261
1244.4	0.97283
1244.6	0.97305
1244.8	0.97327
1245.0	0.97348
1245.2	0.97315
1245.4	0.97281
1245.6	0.97248
1245.8	0.97214
1246.0	0.97183
1246.2	0.9718
1246.4	0.97178
1246.6	0.97176
1246.8	0.97173
1247.0	0.97171
1247.2	0.97176
1247.4	0.97181
1247.6	0.97185
1247.8	0.9719
1248.0	0.97193
1248.2	0.97148
1248.4	0.97103
1248.6	0.97058
1248.8	0.97013
1249.0	0.96968
1249.2	0.96919
1249.4	0.96869
1249.6	0.9682
1249.8	0.96771
1250.0	0.96723
1250.2	0.96713
1250.4	0.96704
1250.6	0.96694
1250.8	0.96685
1251.0	0.96675
1251.2	0.96667
1251.4	0.96659
1251.6	0.9665
1251.8	0.96642
1252.0	0.96633
1252.2	0.96605
1252.4	0.96577
1252.6	0.96549
1252.8	0.96522
1253.0	0.96495
1253.2	0.96543
1253.4	0.9659
1253.6	0.96637
1253.8	0.96685
1254.0	0.96732
1254.2	0.96754
1254.4	0.96777
1254.6	0.968
1254.8	0.96823
1255.0	0.96845
1255.2	0.96854
1255.4	0.96863
1255.6	0.96872
1255.8	0.96881
1256.0	0.96893
1256.2	0.96968
1256.4	0.97042
1256.6	0.97117
1256.8	0.97192
1257.0	0.97264
1257.2	0.97284
1257.4	0.97304
1257.6	0.97325
1257.8	0.97345
1258.0	0.97365
1258.2	0.97384
1258.4	0.97404
1258.6	0.97423
1258.8	0.97443
1259.0	0.97463
1259.2	0.97494
1259.4	0.97525
1259.6	0.97555
1259.8	0.97586
1260.0	0.97616
1260.2	0.9759
1260.4	0.97565
1260.6	0.9754
1260.8	0.97515
1261.0	0.9749
1261.2	0.97493
1261.4	0.97496
1261.6	0.97499
1261.8	0.97502
1262.0	0.97504
1262.2	0.97481
1262.4	0.97457
1262.6	0.97434
1262.8	0.9741
1263.0	0.97387
1263.2	0.97345
1263.4	0.97303
1263.6	0.97261
1263.8	0.97219
1264.0	0.97178
1264.2	0.97175
1264.4	0.97173
1264.6	0.97171
1264.8	0.97168
1265.0	0.97163
1265.2	0.97091
1265.4	0.97019
1265.6	0.96948
1265.8	0.96876
1266.0	0.96807
1266.2	0.96788
1266.4	0.96769
1266.6	0.9675
1266.8	0.96731
1267.0	0.96712
1267.2	0.96687
1267.4	0.96662
1267.6	0.96637
1267.8	0.96612
1268.0	0.96588
1268.2	0.96587
1268.4	0.96586
1268.6	0.96586
1268.8	0.96585
1269.0	0.96585
1269.2	0.96624
1269.4	0.96663
1269.6	0.96702
1269.8	0.96741
1270.0	0.96779
1270.2	0.9677
1270.4	0.96762
1270.6	0.96753
1270.8	0.96744
1271.0	0.96737
1271.2	0.96793
1271.4	0.96849
1271.6	0.96905
1271.8	0.96961
1272.0	0.97017
1272.2	0.97029
1272.4	0.97041
1272.6	0.97053
1272.8	0.97065
1273.0	0.9708
1273.2	0.97153
1273.4	0.97226
1273.6	0.97299
1273.8	0.97372
1274.0	0.97443
1274.2	0.97449
1274.4	0.97455
1274.6	0.97462
1274.8	0.97468
1275.0	0.97475
1275.2	0.975
1275.4	0.97525
1275.6	0.9755
1275.8	0.97575
1276.0	0.976
1276.2	0.97611
1276.4	0.97622
1276.6	0.97633
1276.8	0.97644
1277.0	0.97655
1277.2	0.97651
1277.4	0.97648
1277.6	0.97644
1277.8	0.9764
1278.0	0.97635
1278.2	0.97602
1278.4	0.97568
1278.6	0.97535
1278.8	0.97501
1279.0	0.97469
1279.2	0.97466
1279.4	0.97464
1279.6	0.97461
1279.8	0.97459
1280.0	0.97455
1280.2	0.97402
1280.4	0.97349
1280.6	0.97296
1280.8	0.97243
1281.0	0.9719
1281.2	0.97168
1281.4	0.97145
1281.6	0.97123
1281.8	0.971
1282.0	0.97078
1282.2	0.97032
1282.4	0.96986
1282.6	0.96941
1282.8	0.96895
1283.0	0.96852
1283.2	0.96865
1283.4	0.96878
1283.6	0.96892
1283.8	0.96905
1284.0	0.96917
1284.2	0.96882
1284.4	0.96847
1284.6	0.96812
1284.8	0.96778
1285.0	0.96744
1285.2	0.96759
1285.4	0.96775
1285.6	0.9679
1285.8	0.96806
1286.0	0.96822
1286.2	0.96827
1286.4	0.96833
1286.6	0.96838
1286.8	0.96844
1287.0	0.96851
1287.2	0.96914
1287.4	0.96977
1287.6	0.9704
1287.8	0.97103
1288.0	0.97165
1288.2	0.97162
1288.4	0.97159
1288.6	0.97156
1288.8	0.97153
1289.0	0.97151
1289.2	0.97207
1289.4	0.97263
1289.6	0.97319
1289.8	0.97376
1290.0	0.97431
1290.2	0.97461
1290.4	0.97491
1290.6	0.97521
1290.8	0.97551
1291.0	0.97581
1291.2	0.97628
1291.4	0.97674
1291.6	0.9772
1291.8	0.97766
1292.0	0.97812
1292.2	0.97821
1292.4	0.9783
1292.6	0.97839
1292.8	0.97847
1293.0	0.97855
1293.2	0.97841
1293.4	0.97826
1293.6	0.97812
1293.8	0.97798
1294.0	0.97784
1294.2	0.97786
1294.4	0.97789
1294.6	0.97791
1294.8	0.97793
1295.0	0.97794
1295.2	0.97734
1295.4	0.97673
1295.6	0.97612
1295.8	0.97551
1296.0	0.97493
1296.2	0.97479
1296.4	0.97465
1296.6	0.97451
1296.8	0.97437
1297.0	0.97423
1297.2	0.97383
1297.4	0.97342
1297.6	0.97302
1297.8	0.97262
1298.0	0.97221
1298.2	0.97192
1298.4	0.97162
1298.6	0.97133
1298.8	0.97104
1299.0	0.97075
1299.2	0.97075
1299.4	0.97074
1299.6	0.97074
1299.8	0.97073
1300.0	0.97071
1300.2	0.97044
1300.4	0.97016
1300.6	0.96988
1300.8	0.9696
1301.0	0.96932
1301.2	0.96939
1301.4	0.96945
1301.6	0.96951
1301.8	0.96958
1302.0	0.96964
1302.2	0.96972
1302.4	0.96979
1302.6	0.96987
1302.8	0.96994
1303.0	0.97002
1303.2	0.97015
1303.4	0.97027
1303.6	0.9704
1303.8	0.97052
1304.0	0.97065
1304.2	0.97104
1304.4	0.97143
1304.6	0.97181
1304.8	0.9722
1305.0	0.97258
1305.2	0.97272
1305.4	0.97285
1305.6	0.97298
1305.8	0.97311
1306.0	0.97325
1306.2	0.97354
1306.4	0.97383
1306.6	0.97412
1306.8	0.97441
1307.0	0.9747
1307.2	0.97516
1307.4	0.97562
1307.6	0.97608
1307.8	0.97654
1308.0	0.97699
1308.2	0.97713
1308.4	0.97726
1308.6	0.9774
1308.8	0.97754
1309.0	0.97767
1309.2	0.97767
1309.4	0.97766
1309.6	0.97765
1309.8	0.97765
1310.0	0.97764
1310.2	0.97755
1310.4	0.97746
1310.6	0.97737
1310.8	0.97728
1311.0	0.97719
1311.2	0.97698
1311.4	0.97678
1311.6	0.97657
1311.8	0.97636
1312.0	0.97616
1312.2	0.97592
1312.4	0.97569
1312.6	0.97546
1312.8	0.97523
1313.0	0.975
1313.2	0.97478
1313.4	0.97456
1313.6	0.97434
1313.8	0.97412
1314.0	0.97389
1314.2	0.97335
1314.4	0.9728
1314.6	0.97226
1314.8	0.97172
1315.0	0.97118
1315.2	0.97097
1315.4	0.97076
1315.6	0.97055
1315.8	0.97034
1316.0	0.97013
1316.2	0.96996
1316.4	0.9698
1316.6	0.96963
1316.8	0.96946
1317.0	0.9693
1317.2	0.96916
1317.4	0.96902
1317.6	0.96888
1317.8	0.96873
1318.0	0.96859
1318.2	0.96841
1318.4	0.96823
1318.6	0.96805
1318.8	0.96786
1319.0	0.96769
1319.2	0.96779
1319.4	0.9679
1319.6	0.96801
1319.8	0.96812
1320.0	0.96823
1320.2	0.96851
1320.4	0.96878
1320.6	0.96906
1320.8	0.96933
1321.0	0.9696
1321.2	0.9697
1321.4	0.9698
1321.6	0.9699
1321.8	0.97
1322.0	0.97011
1322.2	0.97047
1322.4	0.97084
1322.6	0.97121
1322.8	0.97158
1323.0	0.97196
1323.2	0.97282
1323.4	0.97367
1323.6	0.97453
1323.8	0.97539
1324.0	0.97623
1324.2	0.97621
1324.4	0.97618
1324.6	0.97615
1324.8	0.97613
1325.0	0.97611
1325.2	0.9762
1325.4	0.9763
1325.6	0.9764
1325.8	0.97649
1326.0	0.9766
1326.2	0.97703
1326.4	0.97745
1326.6	0.97787
1326.8	0.97829
1327.0	0.9787
1327.2	0.97877
1327.4	0.97883
1327.6	0.97889
1327.8	0.97895
1328.0	0.97901
1328.2	0.9788
1328.4	0.97859
1328.6	0.97838
1328.8	0.97817
1329.0	0.97796
1329.2	0.97765
1329.4	0.97734
1329.6	0.97703
1329.8	0.97673
1330.0	0.97642
1330.2	0.97625
1330.4	0.97608
1330.6	0.9759
1330.8	0.97573
1331.0	0.97556
1331.2	0.97539
1331.4	0.97521
1331.6	0.97504
1331.8	0.97487
1332.0	0.9747
1332.2	0.97419
1332.4	0.97368
1332.6	0.97318
1332.8	0.97267
1333.0	0.97217
1333.2	0.97164
1333.4	0.97111
1333.6	0.97059
1333.8	0.97006
1334.0	0.96954
1334.2	0.96899
1334.4	0.96845
1334.6	0.9679
1334.8	0.96736
1335.0	0.96683
1335.2	0.96681
1335.4	0.96679
1335.6	0.96678
1335.8	0.96676
1336.0	0.96676
1336.2	0.96727
1336.4	0.96779
1336.6	0.9683
1336.8	0.96881
1337.0	0.9693
1337.2	0.96932
1337.4	0.96934
1337.6	0.96936
1337.8	0.96938
1338.0	0.9694
1338.2	0.96958
1338.4	0.96975
1338.6	0.96992
1338.8	0.9701
1339.0	0.97027
1339.2	0.97043
1339.4	0.9706
1339.6	0.97076
1339.8	0.97092
1340.0	0.97108
1340.2	0.97142
1340.4	0.97175
1340.6	0.97208
1340.8	0.97241
1341.0	0.97274
1341.2	0.97313
1341.4	0.97353
1341.6	0.97392
1341.8	0.97432
1342.0	0.97471
1342.2	0.97504
1342.4	0.97538
1342.6	0.97572
1342.8	0.97605
1343.0	0.9764
1343.2	0.97687
1343.4	0.97735
1343.6	0.97783
1343.8	0.9783
1344.0	0.97877
1344.2	0.97878
1344.4	0.97878
1344.6	0.97878
1344.8	0.97879
1345.0	0.97879
1345.2	0.97876
1345.4	0.97873
1345.6	0.9787
1345.8	0.97867
1346.0	0.97864
1346.2	0.97852
1346.4	0.97841
1346.6	0.97829
1346.8	0.97817
1347.0	0.97805
1347.2	0.97774
1347.4	0.97743
1347.6	0.97712
1347.8	0.97681
1348.0	0.97651
1348.2	0.97634
1348.4	0.97617
1348.6	0.976
1348.8	0.97584
1349.0	0.97566
1349.2	0.97534
1349.4	0.97501
1349.6	0.97469
1349.8	0.97437
1350.0	0.97404
1350.2	0.97324
1350.4	0.97245
1350.6	0.97166
1350.8	0.97087
1351.0	0.97012
1351.2	0.9709
1351.4	0.97168
1351.6	0.97247
1351.8	0.97325
1352.0	0.97396
1352.2	0.97281
1352.4	0.97166
1352.6	0.97051
1352.8	0.96937
1353.0	0.96823
1353.2	0.96772
1353.4	0.9672
1353.6	0.96669
1353.8	0.96617
1354.0	0.96567
1354.2	0.96566
1354.4	0.96564
1354.6	0.96562
1354.8	0.96561
1355.0	0.96573
1355.2	0.96919
1355.4	0.97266
1355.6	0.97615
1355.8	0.97964
1356.0	0.98307
1356.2	0.97864
1356.4	0.97423
1356.6	0.96984
1356.8	0.96546
1357.0	0.96125
1357.2	0.96266
1357.4	0.96407
1357.6	0.96548
1357.8	0.96689
1358.0	0.96812
1358.2	0.96493
1358.4	0.96176
1358.6	0.95859
1358.8	0.95543
1359.0	0.95238
1359.2	0.95907
1359.4	0.9658
1359.6	0.97257
1359.8	0.9794
1360.0	0.98597
1360.2	0.98083
1360.4	0.97571
1360.6	0.97062
1360.8	0.96556
1361.0	0.96078
1361.2	0.96228
1361.4	0.96378
1361.6	0.96528
1361.8	0.96678
1362.0	0.96829
1362.2	0.97016
1362.4	0.97204
1362.6	0.97392
1362.8	0.97581
1363.0	0.97744
1363.2	0.96898
1363.4	0.9606
1363.6	0.95229
1363.8	0.94405
1364.0	0.93648
1364.2	0.94177
1364.4	0.94709
1364.6	0.95244
1364.8	0.95782
1365.0	0.96321
1365.2	0.96767
1365.4	0.97214
1365.6	0.97664
1365.8	0.98116
1366.0	0.98548
1366.2	0.98254
1366.4	0.9796
1366.6	0.97667
1366.8	0.97376
1367.0	0.97074
1367.2	0.96572
1367.4	0.96073
1367.6	0.95577
1367.8	0.95083
1368.0	0.94616
1368.2	0.95392
1368.4	0.96173
1368.6	0.96962
1368.8	0.97756
1369.0	0.98507
1369.2	0.98042
1369.4	0.97579
1369.6	0.97118
1369.8	0.9666
1370.0	0.96209
1370.2	0.963
1370.4	0.96392
1370.6	0.96483
1370.8	0.96575
1371.0	0.96663
1371.2	0.96622
1371.4	0.9658
1371.6	0.96539
1371.8	0.96497
1372.0	0.96455
1372.2	0.96387
1372.4	0.96319
1372.6	0.96251
1372.8	0.96183
1373.0	0.96115
1373.2	0.96065
1373.4	0.96014
1373.6	0.95963
1373.8	0.95913
1374.0	0.95862
1374.2	0.95792
1374.4	0.95723
1374.6	0.95653
1374.8	0.95584
1375.0	0.95516
1375.2	0.95542
1375.4	0.95567
1375.6	0.95592
1375.8	0.95618
1376.0	0.95643
1376.2	0.95664
1376.4	0.95685
1376.6	0.95706
1376.8	0.95727
1377.0	0.95747
1377.2	0.95678
1377.4	0.9561
1377.6	0.95541
1377.8	0.95473
1378.0	0.95408
1378.2	0.95459
1378.4	0.9551
1378.6	0.95561
1378.8	0.95612
1379.0	0.95673
1379.2	0.95934
1379.4	0.96195
1379.6	0.96457
1379.8	0.96719
1380.0	0.96968
1380.2	0.96647
1380.4	0.96327
1380.6	0.96008
1380.8	0.9569
1381.0	0.95375
1381.2	0.95396
1381.4	0.95417
1381.6	0.95437
1381.8	0.95458
1382.0	0.95469
1382.2	0.95113
1382.4	0.94758
1382.6	0.94404
1382.8	0.94051
1383.0	0.93705
1383.2	0.9384
1383.4	0.93975
1383.6	0.9411
1383.8	0.94245
1384.0	0.94375
1384.2	0.94343
1384.4	0.94311
1384.6	0.94279
1384.8	0.94246
1385.0	0.94219
1385.2	0.94657
1385.4	0.95098
1385.6	0.95541
1385.8	0.95985
1386.0	0.96384
1386.2	0.95255
1386.4	0.94138
1386.6	0.93034
1386.8	0.91944
1387.0	0.90899
1387.2	0.92007
1387.4	0.93129
1387.6	0.94264
1387.8	0.95413
1388.0	0.96507
1388.2	0.95694
1388.4	0.94888
1388.6	0.94088
1388.8	0.93296
1389.0	0.92533
1389.2	0.92943
1389.4	0.93354
1389.6	0.93768
1389.8	0.94183
1390.0	0.94586
1390.2	0.94663
1390.4	0.9474
1390.6	0.94817
1390.8	0.94894
1391.0	0.94992
1391.2	0.95926
1391.4	0.96869
1391.6	0.97821
1391.8	0.98783
1392.0	0.99735
1392.2	0.98862
1392.4	0.97997
1392.6	0.97139
1392.8	0.96289
1393.0	0.95476
1393.2	0.95371
1393.4	0.95267
1393.6	0.95162
1393.8	0.95058
1394.0	0.94973
1394.2	0.95602
1394.4	0.96235
1394.6	0.96872
1394.8	0.97514
1395.0	0.98157
1395.2	0.98507
1395.4	0.98859
1395.6	0.99212
1395.8	0.99566
1396.0	0.99878
1396.2	0.99146
1396.4	0.98418
1396.6	0.97697
1396.8	0.9698
1397.0	0.96288
1397.2	0.96356
1397.4	0.96424
1397.6	0.96492
1397.8	0.9656
1398.0	0.9663
1398.2	0.96844
1398.4	0.97058
1398.6	0.97273
1398.8	0.97488
1399.0	0.97673
1399.2	0.97134
1399.4	0.96598
1399.6	0.96065
1399.8	0.95535
1400.0	0.95031
1400.2	0.9543
1400.4	0.95831
1400.6	0.96234
1400.8	0.96639
1401.0	0.97039
1401.2	0.97037
1401.4	0.97036
1401.6	0.97034
1401.8	0.97032
1402.0	0.9703
1402.2	0.97045
1402.4	0.9706
1402.6	0.97075
1402.8	0.9709
1403.0	0.97105
1403.2	0.97113
1403.4	0.97122
1403.6	0.9713
1403.8	0.97138
1404.0	0.97145
1404.2	0.97101
1404.4	0.97058
1404.6	0.97015
1404.8	0.96972
1405.0	0.96935
1405.2	0.97072
1405.4	0.9721
1405.6	0.97348
1405.8	0.97486
1406.0	0.97614
1406.2	0.97192
1406.4	0.96773
1406.6	0.96355
1406.8	0.95939
1407.0	0.95531
1407.2	0.95741
1407.4	0.95951
1407.6	0.96162
1407.8	0.96373
1408.0	0.96554
1408.2	0.96078
1408.4	0.95605
1408.6	0.95134
1408.8	0.94665
1409.0	0.94238
1409.2	0.94744
1409.4	0.95253
1409.6	0.95765
1409.8	0.9628
1410.0	0.96775
1410.2	0.96656
1410.4	0.96537
1410.6	0.96418
1410.8	0.963
1411.0	0.96176
1411.2	0.95891
1411.4	0.95606
1411.6	0.95323
1411.8	0.9504
1412.0	0.94781
1412.2	0.95254
1412.4	0.9573
1412.6	0.96208
1412.8	0.96689
1413.0	0.97159
1413.2	0.97205
1413.4	0.97251
1413.6	0.97297
1413.8	0.97343
1414.0	0.97382
1414.2	0.97139
1414.4	0.96897
1414.6	0.96655
1414.8	0.96415
1415.0	0.96184
1415.2	0.9633
1415.4	0.96476
1415.6	0.96622
1415.8	0.96768
1416.0	0.96914
1416.2	0.97033
1416.4	0.97151
1416.6	0.9727
1416.8	0.97389
1417.0	0.97505
1417.2	0.97503
1417.4	0.97501
1417.6	0.97499
1417.8	0.97498
1418.0	0.97494
1418.2	0.9743
1418.4	0.97367
1418.6	0.97303
1418.8	0.9724
1419.0	0.97181
1419.2	0.97305
1419.4	0.97428
1419.6	0.97552
1419.8	0.97676
1420.0	0.97797
1420.2	0.97778
1420.4	0.97758
1420.6	0.97739
1420.8	0.9772
1421.0	0.97702
1421.2	0.97742
1421.4	0.97781
1421.6	0.97821
1421.8	0.9786
1422.0	0.97894
1422.2	0.978
1422.4	0.97705
1422.6	0.97611
1422.8	0.97516
1423.0	0.97427
1423.2	0.97446
1423.4	0.97465
1423.6	0.97485
1423.8	0.97504
1424.0	0.97521
1424.2	0.97488
1424.4	0.97454
1424.6	0.97421
1424.8	0.97387
1425.0	0.97354
1425.2	0.97348
1425.4	0.97343
1425.6	0.97337
1425.8	0.97331
1426.0	0.97326
1426.2	0.97327
1426.4	0.97327
1426.6	0.97328
1426.8	0.97329
1427.0	0.9733
1427.2	0.97309
1427.4	0.97289
1427.6	0.97269
1427.8	0.97249
1428.0	0.97228
1428.2	0.97195
1428.4	0.97162
1428.6	0.97129
1428.8	0.97096
1429.0	0.97063
1429.2	0.97035
1429.4	0.97007
1429.6	0.96979
1429.8	0.96951
1430.0	0.96924
1430.2	0.96921
1430.4	0.96918
1430.6	0.96916
1430.8	0.96913
1431.0	0.9691
1431.2	0.9692
1431.4	0.96929
1431.6	0.96938
1431.8	0.96947
1432.0	0.96956
1432.2	0.96941
1432.4	0.96926
1432.6	0.96911
1432.8	0.96896
1433.0	0.96885
1433.2	0.96951
1433.4	0.97017
1433.6	0.97083
1433.8	0.9715
1434.0	0.97214
1434.2	0.97155
1434.4	0.97095
1434.6	0.97036
1434.8	0.96976
1435.0	0.9692
1435.2	0.96962
1435.4	0.97005
1435.6	0.97048
1435.8	0.97091
1436.0	0.9713
1436.2	0.97074
1436.4	0.97019
1436.6	0.96964
1436.8	0.96909
1437.0	0.96856
1437.2	0.96963
1437.4	0.97071
1437.6	0.97178
1437.8	0.97286
1438.0	0.97391
1438.2	0.97399
1438.4	0.97406
1438.6	0.97414
1438.8	0.97421
1439.0	0.9743
1439.2	0.97454
1439.4	0.97478
1439.6	0.97502
1439.8	0.97526
1440.0	0.97552
1440.2	0.97689
1440.4	0.97826
1440.6	0.97963
1440.8	0.981
1441.0	0.98229
1441.2	0.98114
1441.4	0.98
1441.6	0.97885
1441.8	0.97771
1442.0	0.97657
1442.2	0.9764
1442.4	0.97623
1442.6	0.97606
1442.8	0.97589
1443.0	0.97575
1443.2	0.97669
1443.4	0.97763
1443.6	0.97857
1443.8	0.97951
1444.0	0.9804
1444.2	0.97612
1444.4	0.97187
1444.6	0.96764
1444.8	0.96342
1445.0	0.95941
1445.2	0.9629
1445.4	0.96641
1445.6	0.96992
1445.8	0.97345
1446.0	0.9768
1446.2	0.97602
1446.4	0.97524
1446.6	0.97446
1446.8	0.97368
1447.0	0.97291
1447.2	0.97244
1447.4	0.97198
1447.6	0.97152
1447.8	0.97105
1448.0	0.97061
1448.2	0.97063
1448.4	0.97065
1448.6	0.97067
1448.8	0.97069
1449.0	0.97068
1449.2	0.96954
1449.4	0.9684
1449.6	0.96726
1449.8	0.96612
1450.0	0.96505
1450.2	0.96554
1450.4	0.96603
1450.6	0.96652
1450.8	0.96702
1451.0	0.9675
1451.2	0.96756
1451.4	0.96763
1451.6	0.96769
1451.8	0.96776
1452.0	0.96781
1452.2	0.96764
1452.4	0.96748
1452.6	0.96731
1452.8	0.96715
1453.0	0.96698
1453.2	0.96688
1453.4	0.96678
1453.6	0.96667
1453.8	0.96657
1454.0	0.96648
1454.2	0.96755
1454.4	0.96862
1454.6	0.9697
1454.8	0.97077
1455.0	0.97178
1455.2	0.97148
1455.4	0.97118
1455.6	0.97089
1455.8	0.97059
1456.0	0.97029
1456.2	0.9701
1456.4	0.9699
1456.6	0.9697
1456.8	0.9695
1457.0	0.96934
1457.2	0.96975
1457.4	0.97016
1457.6	0.97057
1457.8	0.97098
1458.0	0.97139
1458.2	0.97206
1458.4	0.97272
1458.6	0.97338
1458.8	0.97404
1459.0	0.97469
1459.2	0.97466
1459.4	0.97463
1459.6	0.97459
1459.8	0.97456
1460.0	0.97453
1460.2	0.97467
1460.4	0.97481
1460.6	0.97495
1460.8	0.9751
1461.0	0.97524
1461.2	0.97551
1461.4	0.97579
1461.6	0.97606
1461.8	0.97633
1462.0	0.97661
1462.2	0.97663
1462.4	0.97666
1462.6	0.97669
1462.8	0.97672
1463.0	0.97674
1463.2	0.97653
1463.4	0.97632
1463.6	0.97612
1463.8	0.97591
1464.0	0.97571
1464.2	0.97582
1464.4	0.97593
1464.6	0.97603
1464.8	0.97614
1465.0	0.97625
1465.2	0.97594
1465.4	0.97564
1465.6	0.97534
1465.8	0.97503
1466.0	0.97474
1466.2	0.97469
1466.4	0.97463
1466.6	0.97458
1466.8	0.97453
1467.0	0.97446
1467.2	0.97404
1467.4	0.97361
1467.6	0.97319
1467.8	0.97277
1468.0	0.97234
1468.2	0.97157
1468.4	0.97081
1468.6	0.97005
1468.8	0.9693
1469.0	0.96855
1469.2	0.96929
1469.4	0.97003
1469.6	0.97077
1469.8	0.97151
1470.0	0.9722
1470.2	0.97168
1470.4	0.97116
1470.6	0.97065
1470.8	0.97013
1471.0	0.96961
1471.2	0.96884
1471.4	0.96807
1471.6	0.9673
1471.8	0.96653
1472.0	0.96579
1472.2	0.96615
1472.4	0.96652
1472.6	0.96688
1472.8	0.96725
1473.0	0.9676
1473.2	0.96764
1473.4	0.96769
1473.6	0.96773
1473.8	0.96777
1474.0	0.96782
1474.2	0.96779
1474.4	0.96777
1474.6	0.96774
1474.8	0.96772
1475.0	0.96769
1475.2	0.96756
1475.4	0.96743
1475.6	0.9673
1475.8	0.96717
1476.0	0.96706
1476.2	0.96806
1476.4	0.96905
1476.6	0.97006
1476.8	0.97106
1477.0	0.97205
1477.2	0.97129
1477.4	0.97053
1477.6	0.96978
1477.8	0.96902
1478.0	0.96831
1478.2	0.96862
1478.4	0.96893
1478.6	0.96924
1478.8	0.96955
1479.0	0.96986
1479.2	0.97028
1479.4	0.9707
1479.6	0.97111
1479.8	0.97153
1480.0	0.97193
1480.2	0.97176
1480.4	0.97159
1480.6	0.97142
1480.8	0.97124
1481.0	0.97108
1481.2	0.9719
1481.4	0.97272
1481.6	0.97355
1481.8	0.97437
1482.0	0.97516
1482.2	0.9751
1482.4	0.97505
1482.6	0.975
1482.8	0.97494
1483.0	0.97488
1483.2	0.97465
1483.4	0.97442
1483.6	0.97419
1483.8	0.97396
1484.0	0.97375
1484.2	0.97409
1484.4	0.97444
1484.6	0.97479
1484.8	0.97513
1485.0	0.97547
1485.2	0.97475
1485.4	0.97404
1485.6	0.97332
1485.8	0.9726
1486.0	0.97194
1486.2	0.97242
1486.4	0.9729
1486.6	0.97338
1486.8	0.97386
1487.0	0.97432
1487.2	0.97416
1487.4	0.974
1487.6	0.97383
1487.8	0.97367
1488.0	0.9735
1488.2	0.973
1488.4	0.97249
1488.6	0.97199
1488.8	0.97148
1489.0	0.97099
1489.2	0.97124
1489.4	0.97148
1489.6	0.97173
1489.8	0.97198
1490.0	0.97217
1490.2	0.97127
1490.4	0.97037
1490.6	0.96947
1490.8	0.96857
1491.0	0.96772
1491.2	0.96808
1491.4	0.96845
1491.6	0.96882
1491.8	0.96918
1492.0	0.96953
1492.2	0.96889
1492.4	0.96825
1492.6	0.9676
1492.8	0.96696
1493.0	0.96633
1493.2	0.96602
1493.4	0.9657
1493.6	0.96539
1493.8	0.96508
1494.0	0.96481
1494.2	0.96528
1494.4	0.96575
1494.6	0.96623
1494.8	0.9667
1495.0	0.96714
1495.2	0.96643
1495.4	0.96573
1495.6	0.96502
1495.8	0.96432
1496.0	0.96364
1496.2	0.96456
1496.4	0.96548
1496.6	0.9664
1496.8	0.96731
1497.0	0.96821
1497.2	0.9673
1497.4	0.9664
1497.6	0.9655
1497.8	0.9646
1498.0	0.9638
1498.2	0.96511
1498.4	0.96642
1498.6	0.96773
1498.8	0.96905
1499.0	0.9703
1499.2	0.9697
1499.4	0.96909
1499.6	0.96849
1499.8	0.96789
1500.0	0.96731
1500.2	0.96796
1500.4	0.9686
1500.6	0.96924
1500.8	0.96989
1501.0	0.97053
1501.2	0.97064
1501.4	0.97074
1501.6	0.97085
1501.8	0.97096
1502.0	0.97107
1502.2	0.97135
1502.4	0.97163
1502.6	0.97191
1502.8	0.97219
1503.0	0.97247
1503.2	0.97269
1503.4	0.97291
1503.6	0.97314
1503.8	0.97336
1504.0	0.97358
1504.2	0.97343
1504.4	0.97328
1504.6	0.97313
1504.8	0.97298
1505.0	0.97287
1505.2	0.97359
1505.4	0.97431
1505.6	0.97503
1505.8	0.97575
1506.0	0.97643
1506.2	0.97584
1506.4	0.97524
1506.6	0.97464
1506.8	0.97405
1507.0	0.97346
1507.2	0.97369
1507.4	0.97392
1507.6	0.97415
1507.8	0.97438
1508.0	0.97456
1508.2	0.97361
1508.4	0.97267
1508.6	0.97173
1508.8	0.97079
1509.0	0.96991
1509.2	0.97057
1509.4	0.97124
1509.6	0.97191
1509.8	0.97258
1510.0	0.97321
1510.2	0.97196
1510.4	0.9707
1510.6	0.96945
1510.8	0.9682
1511.0	0.96704
1511.2	0.9677
1511.4	0.96836
1511.6	0.96901
1511.8	0.96967
1512.0	0.97028
1512.2	0.96919
1512.4	0.96811
1512.6	0.96702
1512.8	0.96594
1513.0	0.96489
1513.2	0.96561
1513.4	0.96633
1513.6	0.96705
1513.8	0.96777
1514.0	0.96843
1514.2	0.96715
1514.4	0.96587
1514.6	0.96459
1514.8	0.96332
1515.0	0.9621
1515.2	0.96305
1515.4	0.96399
1515.6	0.96494
1515.8	0.96589
1516.0	0.96672
1516.2	0.96541
1516.4	0.96411
1516.6	0.9628
1516.8	0.9615
1517.0	0.96029
1517.2	0.96145
1517.4	0.96261
1517.6	0.96378
1517.8	0.96494
1518.0	0.96608
1518.2	0.9649
1518.4	0.96372
1518.6	0.96255
1518.8	0.96137
1519.0	0.96031
1519.2	0.96159
1519.4	0.96287
1519.6	0.96416
1519.8	0.96544
1520.0	0.96667
1520.2	0.96603
1520.4	0.9654
1520.6	0.96476
1520.8	0.96413
1521.0	0.96351
1521.2	0.96472
1521.4	0.96594
1521.6	0.96715
1521.8	0.96836
1522.0	0.96952
1522.2	0.96881
1522.4	0.9681
1522.6	0.96739
1522.8	0.96668
1523.0	0.96598
1523.2	0.96682
1523.4	0.96765
1523.6	0.96849
1523.8	0.96932
1524.0	0.97014
1524.2	0.9702
1524.4	0.97027
1524.6	0.97034
1524.8	0.97041
1525.0	0.97048
1525.2	0.97086
1525.4	0.97124
1525.6	0.97162
1525.8	0.972
1526.0	0.97237
1526.2	0.97228
1526.4	0.97219
1526.6	0.9721
1526.8	0.97201
1527.0	0.97192
1527.2	0.97186
1527.4	0.97179
1527.6	0.97172
1527.8	0.97165
1528.0	0.9716
1528.2	0.97171
1528.4	0.97183
1528.6	0.97195
1528.8	0.97207
1529.0	0.97218
1529.2	0.97166
1529.4	0.97113
1529.6	0.97061
1529.8	0.97008
1530.0	0.9696
1530.2	0.97005
1530.4	0.97051
1530.6	0.97096
1530.8	0.97142
1531.0	0.97184
1531.2	0.97097
1531.4	0.9701
1531.6	0.96924
1531.8	0.96837
1532.0	0.96756
1532.2	0.96834
1532.4	0.96912
1532.6	0.9699
1532.8	0.97069
1533.0	0.97145
1533.2	0.96995
1533.4	0.96846
1533.6	0.96697
1533.8	0.96548
1534.0	0.96406
1534.2	0.9649
1534.4	0.96574
1534.6	0.96658
1534.8	0.96742
1535.0	0.96816
1535.2	0.9669
1535.4	0.96565
1535.6	0.9644
1535.8	0.96314
1536.0	0.96192
1536.2	0.96211
1536.4	0.9623
1536.6	0.96248
1536.8	0.96267
1537.0	0.96284
1537.2	0.96279
1537.4	0.96274
1537.6	0.96269
1537.8	0.96264
1538.0	0.96257
1538.2	0.96184
1538.4	0.96111
1538.6	0.96038
1538.8	0.95966
1539.0	0.959
1539.2	0.96014
1539.4	0.96127
1539.6	0.96241
1539.8	0.96355
1540.0	0.96463
1540.2	0.96295
1540.4	0.96126
1540.6	0.95958
1540.8	0.9579
1541.0	0.95632
1541.2	0.95734
1541.4	0.95836
1541.6	0.95938
1541.8	0.9604
1542.0	0.96136
1542.2	0.96117
1542.4	0.96097
1542.6	0.96078
1542.8	0.96058
1543.0	0.96039
1543.2	0.96022
1543.4	0.96006
1543.6	0.95989
1543.8	0.95973
1544.0	0.95962
1544.2	0.96114
1544.4	0.96266
1544.6	0.96418
1544.8	0.9657
1545.0	0.96721
1545.2	0.96606
1545.4	0.96492
1545.6	0.96378
1545.8	0.96264
1546.0	0.96156
1546.2	0.96282
1546.4	0.96409
1546.6	0.96536
1546.8	0.96664
1547.0	0.96786
1547.2	0.96771
1547.4	0.96756
1547.6	0.96742
1547.8	0.96727
1548.0	0.96712
1548.2	0.96639
1548.4	0.96567
1548.6	0.96494
1548.8	0.96422
1549.0	0.96355
1549.2	0.96507
1549.4	0.96658
1549.6	0.9681
1549.8	0.96963
1550.0	0.97104
1550.2	0.97012
1550.4	0.96921
1550.6	0.96829
1550.8	0.96737
1551.0	0.96647
1551.2	0.96679
1551.4	0.9671
1551.6	0.96742
1551.8	0.96773
1552.0	0.96804
1552.2	0.96812
1552.4	0.9682
1552.6	0.96828
1552.8	0.96836
1553.0	0.96839
1553.2	0.96699
1553.4	0.9656
1553.6	0.96421
1553.8	0.96283
1554.0	0.96156
1554.2	0.96251
1554.4	0.96345
1554.6	0.9644
1554.8	0.96535
1555.0	0.96628
1555.2	0.96604
1555.4	0.96579
1555.6	0.96554
1555.8	0.9653
1556.0	0.96502
1556.2	0.96386
1556.4	0.9627
1556.6	0.96154
1556.8	0.96038
1557.0	0.95933
1557.2	0.96046
1557.4	0.9616
1557.6	0.96274
1557.8	0.96388
1558.0	0.96499
1558.2	0.96425
1558.4	0.96351
1558.6	0.96277
1558.8	0.96203
1559.0	0.96128
1559.2	0.96002
1559.4	0.95876
1559.6	0.9575
1559.8	0.95624
1560.0	0.9551
1560.2	0.95665
1560.4	0.95819
1560.6	0.95975
1560.8	0.9613
1561.0	0.96285
1561.2	0.96263
1561.4	0.96242
1561.6	0.9622
1561.8	0.96199
1562.0	0.96175
1562.2	0.96031
1562.4	0.95887
1562.6	0.95744
1562.8	0.956
1563.0	0.95465
1563.2	0.95584
1563.4	0.95703
1563.6	0.95822
1563.8	0.95942
1564.0	0.96058
1564.2	0.96106
1564.4	0.96154
1564.6	0.96201
1564.8	0.96249
1565.0	0.96295
1565.2	0.96142
1565.4	0.95989
1565.6	0.95836
1565.8	0.95684
1566.0	0.95537
1566.2	0.95634
1566.4	0.95731
1566.6	0.95828
1566.8	0.95925
1567.0	0.96023
1567.2	0.96145
1567.4	0.96267
1567.6	0.96389
1567.8	0.96512
1568.0	0.96622
1568.2	0.96469
1568.4	0.96316
1568.6	0.96164
1568.8	0.96011
1569.0	0.95861
1569.2	0.95885
1569.4	0.95909
1569.6	0.95933
1569.8	0.95957
1570.0	0.95984
1570.2	0.96143
1570.4	0.96302
1570.6	0.96461
1570.8	0.9662
1571.0	0.96772
1571.2	0.96664
1571.4	0.96556
1571.6	0.96448
1571.8	0.96341
1572.0	0.96237
1572.2	0.96223
1572.4	0.96209
1572.6	0.96194
1572.8	0.9618
1573.0	0.96166
1573.2	0.96288
1573.4	0.9641
1573.6	0.96532
1573.8	0.96654
1574.0	0.96773
1574.2	0.9674
1574.4	0.96707
1574.6	0.96674
1574.8	0.96641
1575.0	0.96605
1575.2	0.96478
1575.4	0.96352
1575.6	0.96226
1575.8	0.961
1576.0	0.95983
1576.2	0.96102
1576.4	0.96221
1576.6	0.96341
1576.8	0.9646
1577.0	0.96573
1577.2	0.96573
1577.4	0.96573
1577.6	0.96573
1577.8	0.96573
1578.0	0.9657
1578.2	0.96427
1578.4	0.96283
1578.6	0.9614
1578.8	0.95997
1579.0	0.95857
1579.2	0.95801
1579.4	0.95746
1579.6	0.9569
1579.8	0.95635
1580.0	0.95587
1580.2	0.9573
1580.4	0.95872
1580.6	0.96014
1580.8	0.96157
1581.0	0.96291
1581.2	0.96224
1581.4	0.96157
1581.6	0.96089
1581.8	0.96022
1582.0	0.95954
1582.2	0.95778
1582.4	0.95602
1582.6	0.95426
1582.8	0.95251
1583.0	0.95083
1583.2	0.95147
1583.4	0.9521
1583.6	0.95274
1583.8	0.95337
1584.0	0.95404
1584.2	0.9554
1584.4	0.95676
1584.6	0.95813
1584.8	0.9595
1585.0	0.96086
1585.2	0.95987
1585.4	0.95889
1585.6	0.9579
1585.8	0.95692
1586.0	0.95594
1586.2	0.95462
1586.4	0.9533
1586.6	0.95198
1586.8	0.95067
1587.0	0.94943
1587.2	0.9505
1587.4	0.95157
1587.6	0.95264
1587.8	0.95371
1588.0	0.9548
1588.2	0.95623
1588.4	0.95766
1588.6	0.9591
1588.8	0.96054
1589.0	0.96197
1589.2	0.96143
1589.4	0.9609
1589.6	0.96036
1589.8	0.95983
1590.0	0.95928
1590.2	0.95803
1590.4	0.95677
1590.6	0.95552
1590.8	0.95427
1591.0	0.95311
1591.2	0.95414
1591.4	0.95517
1591.6	0.9562
1591.8	0.95723
1592.0	0.95827
1592.2	0.95952
1592.4	0.96076
1592.6	0.962
1592.8	0.96325
1593.0	0.96448
1593.2	0.96464
1593.4	0.96481
1593.6	0.96497
1593.8	0.96514
1594.0	0.96525
1594.2	0.96373
1594.4	0.96221
1594.6	0.96069
1594.8	0.95918
1595.0	0.95774
1595.2	0.95818
1595.4	0.95861
1595.6	0.95905
1595.8	0.95949
1596.0	0.95993
1596.2	0.9611
1596.4	0.96226
1596.6	0.96343
1596.8	0.96459
1597.0	0.96573
1597.2	0.96568
1597.4	0.96563
1597.6	0.96558
1597.8	0.96553
1598.0	0.96541
1598.2	0.96359
1598.4	0.96177
1598.6	0.95996
1598.8	0.95815
1599.0	0.95636
1599.2	0.95598
1599.4	0.9556
1599.6	0.95522
1599.8	0.95484
1600.0	0.95449
1600.2	0.95556
1600.4	0.95663
1600.6	0.9577
1600.8	0.95877
1601.0	0.95982
1601.2	0.96037
1601.4	0.96091
1601.6	0.96146
1601.8	0.962
1602.0	0.96252
1602.2	0.96128
1602.4	0.96004
1602.6	0.95879
1602.8	0.95756
1603.0	0.95631
1603.2	0.95471
1603.4	0.95311
1603.6	0.95152
1603.8	0.94993
1604.0	0.94843
1604.2	0.94869
1604.4	0.94895
1604.6	0.94921
1604.8	0.94947
1605.0	0.94973
