Typical Measured Spectrum of Semrock NF03-405E Optical Filter	
For wavelengths between 320 and 1120 nm, values near or below 3e-7 (Optical Density 6.5) are measurement noise limited.
For wavelengths < 320 nm and > 1120 nm, values near or below 3e-6 (Optical Density 5.5) are measurement noise limited. 
Data format:  Wavelength (nm) <tab> Transmission (0 to 1)
345.0	0.83949
345.2	0.84011
345.4	0.84582
345.6	0.83888
345.8	0.84108
346.0	0.84869
346.2	0.84559
346.4	0.84238
346.6	0.85058
346.8	0.85461
347.0	0.85265
347.2	0.84915
347.4	0.85731
347.6	0.86349
347.8	0.85556
348.0	0.85573
348.2	0.86565
348.4	0.867
348.6	0.86303
348.8	0.86207
349.0	0.87097
349.2	0.87018
349.4	0.86616
349.6	0.86612
349.8	0.87385
350.0	0.87366
350.2	0.87178
350.4	0.87269
350.6	0.87772
350.8	0.87803
351.0	0.8734
351.2	0.87375
351.4	0.88196
351.6	0.87932
351.8	0.87694
352.0	0.87758
352.2	0.88272
352.4	0.88048
352.6	0.87368
352.8	0.8732
353.0	0.8823
353.2	0.88584
353.4	0.8779
353.6	0.87726
353.8	0.88719
354.0	0.88923
354.2	0.88321
354.4	0.87879
354.6	0.88793
354.8	0.8925
355.0	0.88991
355.2	0.88373
355.4	0.88903
355.6	0.89665
355.8	0.89517
356.0	0.89006
356.2	0.88927
356.4	0.89548
356.6	0.89513
356.8	0.8864
357.0	0.88584
357.2	0.89266
357.4	0.89706
357.6	0.88721
357.8	0.88125
358.0	0.8833
358.2	0.89212
358.4	0.88995
358.6	0.88288
358.8	0.88541
359.0	0.89422
359.2	0.89943
359.4	0.89192
359.6	0.89089
359.8	0.89796
360.0	0.90337
360.2	0.90226
360.4	0.89675
360.6	0.89748
360.8	0.90379
361.0	0.90439
361.2	0.894
361.4	0.88764
361.6	0.89229
361.8	0.89992
362.0	0.89805
362.2	0.88905
362.4	0.88831
362.6	0.89333
362.8	0.89599
363.0	0.89043
363.2	0.88618
363.4	0.88673
363.6	0.89514
363.8	0.89641
364.0	0.89256
364.2	0.88742
364.4	0.89147
364.6	0.901
364.8	0.89523
365.0	0.89016
365.2	0.89654
365.4	0.90293
365.6	0.8974
365.8	0.88844
366.0	0.88692
366.2	0.89764
366.4	0.90444
366.6	0.90093
366.8	0.88979
367.0	0.88831
367.2	0.8953
367.4	0.90141
367.6	0.89701
367.8	0.88974
368.0	0.8912
368.2	0.89773
368.4	0.90121
368.6	0.89537
368.8	0.88905
369.0	0.88586
369.2	0.89481
369.4	0.90215
369.6	0.89715
369.8	0.89093
370.0	0.89266
370.2	0.8996
370.4	0.90158
370.6	0.89522
370.8	0.889
371.0	0.88985
371.2	0.89864
371.4	0.90102
371.6	0.89601
371.8	0.88903
372.0	0.89021
372.2	0.89813
372.4	0.90177
372.6	0.89639
372.8	0.88872
373.0	0.89015
373.2	0.89916
373.4	0.90508
373.6	0.90097
373.8	0.89252
374.0	0.89111
374.2	0.90029
374.4	0.91099
374.6	0.90714
374.8	0.89911
375.0	0.89489
375.2	0.90133
375.4	0.91129
375.6	0.91093
375.8	0.90174
376.0	0.8925
376.2	0.89501
376.4	0.90226
376.6	0.9068
376.8	0.9005
377.0	0.89296
377.2	0.89111
377.4	0.89868
377.6	0.90444
377.8	0.90317
378.0	0.8949
378.2	0.89188
378.4	0.89894
378.6	0.90652
378.8	0.91083
379.0	0.90624
379.2	0.90069
379.4	0.90485
379.6	0.91366
379.8	0.91643
380.0	0.91419
380.2	0.90522
380.4	0.90205
380.6	0.90999
380.8	0.92039
381.0	0.9208
381.2	0.91128
381.4	0.90251
381.6	0.90409
381.8	0.91387
382.0	0.92041
382.2	0.91683
382.4	0.90895
382.6	0.9029
382.8	0.90891
383.0	0.91881
383.2	0.92071
383.4	0.9139
383.6	0.90633
383.8	0.90788
384.0	0.91625
384.2	0.92163
384.4	0.92052
384.6	0.91042
384.8	0.90448
385.0	0.9113
385.2	0.92085
385.4	0.92895
385.6	0.92344
385.8	0.91411
386.0	0.91227
386.2	0.92015
386.4	0.92785
386.6	0.92994
386.8	0.92268
387.0	0.91497
387.2	0.9164
387.4	0.92538
387.6	0.92928
387.8	0.92658
388.0	0.91663
388.2	0.9126
388.4	0.91714
388.6	0.92808
388.8	0.93461
389.0	0.92969
389.2	0.91909
389.4	0.9148
389.6	0.91973
389.8	0.93125
390.0	0.93793
390.2	0.93483
390.4	0.92583
390.6	0.92409
390.8	0.93191
391.0	0.94066
391.2	0.9424
391.4	0.93623
391.6	0.92766
391.8	0.9251
392.0	0.9353
392.2	0.93931
392.4	0.9307
392.6	0.91825
392.8	0.91539
393.0	0.92379
393.2	0.93556
393.4	0.93712
393.6	0.92925
393.8	0.91926
394.0	0.91938
394.2	0.92864
394.4	0.9395
394.6	0.94082
394.8	0.93618
395.0	0.92733
395.2	0.93078
395.4	0.94094
395.6	0.94809
395.8	0.94597
396.0	0.93751
396.2	0.93567
396.4	0.94378
396.6	0.95038
396.8	0.95268
397.0	0.94454
397.2	0.935
397.4	0.93833
397.6	0.94664
397.8	0.95015
398.0	0.94337
398.2	0.93306
398.4	0.9307
398.6	0.93812
398.8	0.94288
399.0	0.93759
399.2	0.93423
399.4	0.93729
399.6	0.93969
399.8	0.93648
400.0	0.93483
400.2	0.90575
400.4	0.80599
400.6	0.664
400.8	0.36592
401.0	0.02471
401.2	0.00573
401.4	0.00236
401.6	0.00152
401.8	0.00115
402.0	8.1146e-04
402.2	5.774e-04
402.4	5.2105e-05
402.6	6.2719e-06
402.8	3.5594e-06
403.0	1.8106e-06
403.2	2.5085e-06
403.4	2.0434e-06
403.6	1.1757e-06
403.8	9.0761e-07
404.0	1.0114e-06
404.2	8.4645e-07
404.4	8.165e-07
404.6	7.9632e-07
404.8	7.0908e-07
405.0	6.2853e-07
405.2	3.9658e-07
405.4	1.939e-07
405.6	5.5514e-07
405.8	9.7916e-07
406.0	1.3893e-06
406.2	1.2248e-06
406.4	1.2329e-06
406.6	1.6937e-06
406.8	3.0994e-06
407.0	2.8244e-06
407.2	3.0238e-06
407.4	4.3403e-06
407.6	9.1007e-06
407.8	3.0084e-05
408.0	9.3934e-05
408.2	1.578e-04
408.4	3.0881e-04
408.6	6.3222e-04
408.8	0.0016
409.0	0.00555
409.2	0.02997
409.4	0.18089
409.6	0.42388
409.8	0.67905
410.0	0.84884
410.2	0.92303
410.4	0.92044
410.6	0.92967
410.8	0.94873
411.0	0.94007
411.2	0.91508
411.4	0.90899
411.6	0.92885
411.8	0.95247
412.0	0.96005
412.2	0.95165
412.4	0.94733
412.6	0.95244
412.8	0.96317
413.0	0.96247
413.2	0.95603
413.4	0.94693
413.6	0.94742
413.8	0.95558
414.0	0.96327
414.2	0.95836
414.4	0.94512
414.6	0.93142
414.8	0.92778
415.0	0.93828
415.2	0.95159
415.4	0.95962
415.6	0.9557
415.8	0.94629
416.0	0.93909
416.2	0.94137
416.4	0.94988
416.6	0.95605
416.8	0.95504
417.0	0.94644
417.2	0.93773
417.4	0.9357
417.6	0.94377
417.8	0.95279
418.0	0.95918
418.2	0.95528
418.4	0.94351
418.6	0.93377
418.8	0.93354
419.0	0.94284
419.2	0.9558
419.4	0.96272
419.6	0.96256
419.8	0.95372
420.0	0.94475
420.2	0.94077
420.4	0.94751
420.6	0.95752
420.8	0.96514
421.0	0.96391
421.2	0.9549
421.4	0.94453
421.6	0.9387
421.8	0.9432
422.0	0.9526
422.2	0.95913
422.4	0.96066
422.6	0.95333
422.8	0.94318
423.0	0.93757
423.2	0.93896
423.4	0.94677
423.6	0.95455
423.8	0.95631
424.0	0.95013
424.2	0.93921
424.4	0.93217
424.6	0.93182
424.8	0.93821
425.0	0.94848
425.2	0.95598
425.4	0.95479
425.6	0.94734
425.8	0.93902
426.0	0.93478
426.2	0.93914
426.4	0.94865
426.6	0.9568
426.8	0.96031
427.0	0.95685
427.2	0.94941
427.4	0.93988
427.6	0.93566
427.8	0.94124
428.0	0.95028
428.2	0.95922
428.4	0.96047
428.6	0.95476
428.8	0.94371
429.0	0.93483
429.2	0.93173
429.4	0.93892
429.6	0.9495
429.8	0.95855
430.0	0.95828
430.2	0.95159
430.4	0.94149
430.6	0.93303
430.8	0.93285
431.0	0.93862
431.2	0.94881
431.4	0.95676
431.6	0.95686
431.8	0.94966
432.0	0.94092
432.2	0.93452
432.4	0.93446
432.6	0.94167
432.8	0.95126
433.0	0.95833
433.2	0.9579
433.4	0.95126
433.6	0.94193
433.8	0.93518
434.0	0.93479
434.2	0.94017
434.4	0.95013
434.6	0.95621
434.8	0.95609
435.0	0.95008
435.2	0.94156
435.4	0.93539
435.6	0.9335
435.8	0.93816
436.0	0.94566
436.2	0.95179
436.4	0.95289
436.6	0.94834
436.8	0.94181
437.0	0.93605
437.2	0.93527
437.4	0.94008
437.6	0.94718
437.8	0.95254
438.0	0.9534
438.2	0.94859
438.4	0.94094
438.6	0.93491
438.8	0.93364
439.0	0.93824
439.2	0.94743
439.4	0.95475
439.6	0.95884
439.8	0.95627
440.0	0.94965
440.2	0.94224
440.4	0.93835
440.6	0.94021
440.8	0.94644
441.0	0.95355
441.2	0.9588
441.4	0.95684
441.6	0.94901
441.8	0.94091
442.0	0.93465
442.2	0.9324
442.4	0.93649
442.6	0.94236
442.8	0.9496
443.0	0.95179
443.2	0.94798
443.4	0.94164
443.6	0.93531
443.8	0.93291
444.0	0.93539
444.2	0.94131
444.4	0.94855
444.6	0.95227
444.8	0.95046
445.0	0.94406
445.2	0.93671
445.4	0.93062
445.6	0.92974
445.8	0.93475
446.0	0.94241
446.2	0.95139
446.4	0.95535
446.6	0.9547
446.8	0.94878
447.0	0.94208
447.2	0.93817
447.4	0.93848
447.6	0.94431
447.8	0.95147
448.0	0.9577
448.2	0.95951
448.4	0.95662
448.6	0.94883
448.8	0.94152
449.0	0.93658
449.2	0.93611
449.4	0.942
449.6	0.94797
449.8	0.95267
450.0	0.95417
450.2	0.95113
450.4	0.94496
450.6	0.93997
450.8	0.93756
451.0	0.93844
451.2	0.94166
451.4	0.94787
451.6	0.95084
451.8	0.95137
452.0	0.94726
452.2	0.94193
452.4	0.93669
452.6	0.93484
452.8	0.93731
453.0	0.94236
453.2	0.94742
453.4	0.95056
453.6	0.94979
453.8	0.9452
454.0	0.93991
454.2	0.93498
454.4	0.93428
454.6	0.93791
454.8	0.94392
455.0	0.95051
455.2	0.95471
455.4	0.95606
455.6	0.95019
455.8	0.94498
456.0	0.93982
456.2	0.93705
456.4	0.93912
456.6	0.94271
456.8	0.94779
457.0	0.94988
457.2	0.95027
457.4	0.94651
457.6	0.94082
457.8	0.93539
458.0	0.93363
458.2	0.93649
458.4	0.94137
458.6	0.94845
458.8	0.95471
459.0	0.95863
459.2	0.95718
459.4	0.95267
459.6	0.94908
459.8	0.9447
460.0	0.94558
460.2	0.94712
460.4	0.95298
460.6	0.95864
460.8	0.96085
461.0	0.95982
461.2	0.95522
461.4	0.94965
461.6	0.94485
461.8	0.94362
462.0	0.9457
462.2	0.94996
462.4	0.95684
462.6	0.96063
462.8	0.96168
463.0	0.9587
463.2	0.95385
463.4	0.94855
463.6	0.94487
463.8	0.94513
464.0	0.9474
464.2	0.95206
464.4	0.95686
464.6	0.95977
464.8	0.95741
465.0	0.95312
465.2	0.94645
465.4	0.9406
465.6	0.9382
465.8	0.93744
466.0	0.94219
466.2	0.94642
466.4	0.95197
466.6	0.95365
466.8	0.95368
467.0	0.95198
467.2	0.94751
467.4	0.9458
467.6	0.94492
467.8	0.9465
468.0	0.94829
468.2	0.9468
468.4	0.95116
468.6	0.9536
468.8	0.9549
469.0	0.95359
469.2	0.94956
469.4	0.94577
469.6	0.94289
469.8	0.94325
470.0	0.94661
470.2	0.95229
470.4	0.9579
470.6	0.96175
470.8	0.96299
471.0	0.96033
471.2	0.95597
471.4	0.95158
471.6	0.94689
471.8	0.94568
472.0	0.94791
472.2	0.9522
472.4	0.95766
472.6	0.9617
472.8	0.96297
473.0	0.96142
473.2	0.95795
473.4	0.95354
473.6	0.94969
473.8	0.94872
474.0	0.95038
474.2	0.95357
474.4	0.95709
474.6	0.95928
474.8	0.9583
475.0	0.95385
475.2	0.94867
475.4	0.9434
475.6	0.9398
475.8	0.93914
476.0	0.94149
476.2	0.94642
476.4	0.95279
476.6	0.95706
476.8	0.95938
477.0	0.9575
477.2	0.95396
477.4	0.94799
477.6	0.94353
477.8	0.94102
478.0	0.94195
478.2	0.94608
478.4	0.95282
478.6	0.95881
478.8	0.96336
479.0	0.96438
479.2	0.96266
479.4	0.9588
479.6	0.95507
479.8	0.95195
480.0	0.95168
480.2	0.95325
480.4	0.95724
480.6	0.96073
480.8	0.96374
481.0	0.96405
481.2	0.9617
481.4	0.95681
481.6	0.95158
481.8	0.94783
482.0	0.94662
482.2	0.94871
482.4	0.95276
482.6	0.95844
482.8	0.96341
483.0	0.96755
483.2	0.96797
483.4	0.96555
483.6	0.96192
483.8	0.95813
484.0	0.95422
484.2	0.95222
484.4	0.95287
484.6	0.95512
484.8	0.95691
485.0	0.9592
485.2	0.95972
485.4	0.95777
485.6	0.95454
485.8	0.95218
486.0	0.94871
486.2	0.9479
486.4	0.94867
486.6	0.95178
486.8	0.95515
487.0	0.95881
487.2	0.96146
487.4	0.96135
487.6	0.95924
487.8	0.95569
488.0	0.95239
488.2	0.94885
488.4	0.94881
488.6	0.94983
488.8	0.95388
489.0	0.95811
489.2	0.96202
489.4	0.96414
489.6	0.9635
489.8	0.96119
490.0	0.95778
490.2	0.9532
490.4	0.94962
490.6	0.949
490.8	0.95016
491.0	0.95248
491.2	0.9547
491.4	0.95846
491.6	0.95929
491.8	0.95842
492.0	0.9563
492.2	0.95271
492.4	0.94937
492.6	0.94703
492.8	0.94732
493.0	0.94825
493.2	0.95121
493.4	0.95499
493.6	0.95811
493.8	0.96078
494.0	0.96019
494.2	0.9591
494.4	0.95593
494.6	0.95274
494.8	0.9508
495.0	0.95015
495.2	0.95069
495.4	0.95298
495.6	0.95591
495.8	0.95802
496.0	0.95927
496.2	0.95902
496.4	0.95683
496.6	0.95423
496.8	0.95184
497.0	0.95006
497.2	0.95017
497.4	0.95082
497.6	0.95348
497.8	0.95684
498.0	0.95958
498.2	0.96022
498.4	0.95926
498.6	0.95652
498.8	0.95313
499.0	0.94948
499.2	0.9462
499.4	0.94527
499.6	0.94594
499.8	0.948
500.0	0.95006
500.2	0.95296
500.4	0.95556
500.6	0.95715
500.8	0.95703
501.0	0.95491
501.2	0.9517
501.4	0.94768
501.6	0.94388
501.8	0.9432
502.0	0.94278
502.2	0.94409
502.4	0.94611
502.6	0.94933
502.8	0.95186
503.0	0.95179
503.2	0.95175
503.4	0.94969
503.6	0.94831
503.8	0.94682
504.0	0.94633
504.2	0.94815
504.4	0.95085
504.6	0.95403
504.8	0.95926
505.0	0.96244
505.2	0.96441
505.4	0.96325
505.6	0.96058
505.8	0.9572
506.0	0.9538
506.2	0.9505
506.4	0.9493
506.6	0.94991
506.8	0.95357
507.0	0.9573
507.2	0.96204
507.4	0.96564
507.6	0.96778
507.8	0.96755
508.0	0.9647
508.2	0.9608
508.4	0.9569
508.6	0.95178
508.8	0.94901
509.0	0.9488
509.2	0.94961
509.4	0.95193
509.6	0.9563
509.8	0.95911
510.0	0.96084
510.2	0.9601
510.4	0.95814
510.6	0.95562
510.8	0.95212
511.0	0.94847
511.2	0.94591
511.4	0.94598
511.6	0.94643
511.8	0.9486
512.0	0.95066
512.2	0.95208
512.4	0.95303
512.6	0.95257
512.8	0.95051
513.0	0.94789
513.2	0.94564
513.4	0.94291
513.6	0.94032
513.8	0.94164
514.0	0.94232
514.2	0.9446
514.4	0.94714
514.6	0.94955
514.8	0.95132
515.0	0.95115
515.2	0.95
515.4	0.94893
515.6	0.94787
515.8	0.94562
516.0	0.94536
516.2	0.9463
516.4	0.9489
516.6	0.95211
516.8	0.95558
517.0	0.95818
517.2	0.95978
517.4	0.95998
517.6	0.95812
517.8	0.95436
518.0	0.95205
518.2	0.95041
518.4	0.9476
518.6	0.94768
518.8	0.94936
519.0	0.95308
519.2	0.95587
519.4	0.95861
519.6	0.96043
519.8	0.96162
520.0	0.96004
520.2	0.95647
520.4	0.95329
520.6	0.94924
520.8	0.94592
521.0	0.94404
521.2	0.94397
521.4	0.9461
521.6	0.94871
521.8	0.95264
522.0	0.95452
522.2	0.95676
522.4	0.95795
522.6	0.95741
522.8	0.95428
523.0	0.95142
523.2	0.94875
523.4	0.94691
523.6	0.94615
523.8	0.94563
524.0	0.9479
524.2	0.95063
524.4	0.95307
524.6	0.95446
524.8	0.95447
525.0	0.95429
525.2	0.95197
525.4	0.94843
525.6	0.94492
525.8	0.94238
526.0	0.94095
526.2	0.94136
526.4	0.94274
526.6	0.94661
526.8	0.95119
527.0	0.95547
527.2	0.95819
527.4	0.95933
527.6	0.96016
527.8	0.95836
528.0	0.95555
528.2	0.9509
528.4	0.94692
528.6	0.94462
528.8	0.9427
529.0	0.94307
529.2	0.94351
529.4	0.94573
529.6	0.94925
529.8	0.95053
530.0	0.95186
530.2	0.95086
530.4	0.94945
530.6	0.9475
530.8	0.94403
531.0	0.93982
531.2	0.93776
531.4	0.93688
531.6	0.93799
531.8	0.93897
532.0	0.94196
532.2	0.9453
532.4	0.9487
532.6	0.95116
532.8	0.95154
533.0	0.95124
533.2	0.95001
533.4	0.94805
533.6	0.94573
533.8	0.94361
534.0	0.94355
534.2	0.94394
534.4	0.94587
534.6	0.94807
534.8	0.95051
535.0	0.95396
535.2	0.95572
535.4	0.95659
535.6	0.95627
535.8	0.95467
536.0	0.95343
536.2	0.95114
536.4	0.94931
536.6	0.94801
536.8	0.9478
537.0	0.94945
537.2	0.95145
537.4	0.95343
537.6	0.95474
537.8	0.95543
538.0	0.95623
538.2	0.95594
538.4	0.95373
538.6	0.95094
538.8	0.94798
539.0	0.94633
539.2	0.94393
539.4	0.94317
539.6	0.94259
539.8	0.94315
540.0	0.94538
540.2	0.94668
540.4	0.94673
540.6	0.94644
540.8	0.94648
541.0	0.94454
541.2	0.94171
541.4	0.93769
541.6	0.93443
541.8	0.93283
542.0	0.93201
542.2	0.9325
542.4	0.93266
542.6	0.93448
542.8	0.93741
543.0	0.94215
543.2	0.94444
543.4	0.94402
543.6	0.94297
543.8	0.94099
544.0	0.9385
544.2	0.93667
544.4	0.93637
544.6	0.9371
544.8	0.93853
545.0	0.94019
545.2	0.94313
545.4	0.94612
545.6	0.94961
545.8	0.95144
546.0	0.95179
546.2	0.95125
546.4	0.94988
546.6	0.94825
546.8	0.94604
547.0	0.94419
547.2	0.94309
547.4	0.94355
547.6	0.94506
547.8	0.94751
548.0	0.9504
548.2	0.95257
548.4	0.95504
548.6	0.95669
548.8	0.95707
549.0	0.9559
549.2	0.95305
549.4	0.94949
549.6	0.9469
549.8	0.94432
550.0	0.94165
550.2	0.93996
550.4	0.93968
550.6	0.94111
550.8	0.9431
551.0	0.94521
551.2	0.94694
551.4	0.94874
551.6	0.94947
551.8	0.95005
552.0	0.94897
552.2	0.94706
552.4	0.94416
552.6	0.94226
552.8	0.9408
553.0	0.9402
553.2	0.93962
553.4	0.94019
553.6	0.94131
553.8	0.9434
554.0	0.9455
554.2	0.94666
554.4	0.9471
554.6	0.94746
554.8	0.94731
555.0	0.94639
555.2	0.94518
555.4	0.9434
555.6	0.94206
555.8	0.94155
556.0	0.94237
556.2	0.94317
556.4	0.94485
556.6	0.94624
556.8	0.94818
557.0	0.9496
557.2	0.95065
557.4	0.95027
557.6	0.94892
557.8	0.94697
558.0	0.94469
558.2	0.94292
558.4	0.9409
558.6	0.93919
558.8	0.93799
559.0	0.93844
559.2	0.94025
559.4	0.94254
559.6	0.94481
559.8	0.94683
560.0	0.94867
560.2	0.95045
560.4	0.95101
560.6	0.95048
560.8	0.94867
561.0	0.9466
561.2	0.94388
561.4	0.942
561.6	0.94091
561.8	0.93968
562.0	0.93927
562.2	0.93971
562.4	0.94168
562.6	0.9439
562.8	0.94576
563.0	0.9472
563.2	0.94786
563.4	0.94781
563.6	0.94772
563.8	0.94677
564.0	0.94511
564.2	0.94247
564.4	0.94018
564.6	0.93918
564.8	0.93872
565.0	0.93873
565.2	0.93849
565.4	0.93957
565.6	0.94097
565.8	0.94322
566.0	0.94553
566.2	0.94696
566.4	0.94759
566.6	0.94744
566.8	0.94693
567.0	0.94672
567.2	0.94634
567.4	0.94533
567.6	0.9446
567.8	0.9439
568.0	0.94458
568.2	0.94648
568.4	0.94808
568.6	0.94919
568.8	0.95054
569.0	0.95153
569.2	0.95264
569.4	0.95303
569.6	0.95248
569.8	0.95125
570.0	0.94971
570.2	0.9483
570.4	0.94668
570.6	0.94607
570.8	0.94539
571.0	0.94506
571.2	0.94527
571.4	0.94644
571.6	0.94819
571.8	0.94988
572.0	0.95103
572.2	0.9515
572.4	0.95131
572.6	0.9508
572.8	0.94997
573.0	0.94888
573.2	0.94689
573.4	0.94481
573.6	0.94242
573.8	0.94136
574.0	0.94087
574.2	0.94101
574.4	0.94112
574.6	0.94173
574.8	0.94196
575.0	0.94295
575.2	0.94425
575.4	0.94467
575.6	0.94441
575.8	0.94332
576.0	0.94197
576.2	0.94085
576.4	0.9401
576.6	0.93937
576.8	0.93839
577.0	0.93752
577.2	0.93814
577.4	0.93926
577.6	0.94087
577.8	0.943
578.0	0.94427
578.2	0.94519
578.4	0.94647
578.6	0.94744
578.8	0.94833
579.0	0.94834
579.2	0.94728
579.4	0.94591
579.6	0.94485
579.8	0.94403
580.0	0.94433
580.2	0.9445
580.4	0.94542
580.6	0.94631
580.8	0.94765
581.0	0.94949
581.2	0.95177
581.4	0.9536
581.6	0.95553
581.8	0.95561
582.0	0.95554
582.2	0.95546
582.4	0.95524
582.6	0.95492
582.8	0.95397
583.0	0.95286
583.2	0.95206
583.4	0.95163
583.6	0.95254
583.8	0.95304
584.0	0.95404
584.2	0.95486
584.4	0.95526
584.6	0.95534
584.8	0.95529
585.0	0.95472
585.2	0.95409
585.4	0.95274
585.6	0.95089
585.8	0.94851
586.0	0.94712
586.2	0.94595
586.4	0.94556
586.6	0.94543
586.8	0.9453
587.0	0.94574
587.2	0.94714
587.4	0.94918
587.6	0.95076
587.8	0.95213
588.0	0.95262
588.2	0.95216
588.4	0.95135
588.6	0.95018
588.8	0.94827
589.0	0.94622
589.2	0.94462
589.4	0.94213
589.6	0.94007
589.8	0.93862
590.0	0.939
590.2	0.93991
590.4	0.94083
590.6	0.94205
590.8	0.94326
591.0	0.94449
591.2	0.94616
591.4	0.94786
591.6	0.94837
591.8	0.94846
592.0	0.94744
592.2	0.94603
592.4	0.94496
592.6	0.94418
592.8	0.94361
593.0	0.94317
593.2	0.94251
593.4	0.94302
593.6	0.9442
593.8	0.94624
594.0	0.94876
594.2	0.95156
594.4	0.9535
594.6	0.9556
594.8	0.95612
595.0	0.95664
595.2	0.95682
595.4	0.95635
595.6	0.95527
595.8	0.95337
596.0	0.95132
596.2	0.94987
596.4	0.94888
596.6	0.94851
596.8	0.94885
597.0	0.94938
597.2	0.95018
597.4	0.95111
597.6	0.95287
597.8	0.95515
598.0	0.95707
598.2	0.95832
598.4	0.95886
598.6	0.9587
598.8	0.95777
599.0	0.9568
599.2	0.95558
599.4	0.95435
599.6	0.95337
599.8	0.95181
600.0	0.95103
600.2	0.9504
600.4	0.95065
600.6	0.95154
600.8	0.95248
601.0	0.95373
601.2	0.95415
601.4	0.95488
601.6	0.95482
601.8	0.95506
602.0	0.95479
602.2	0.95429
602.4	0.9532
602.6	0.95191
602.8	0.95001
603.0	0.94874
603.2	0.94792
603.4	0.94798
603.6	0.94829
603.8	0.9488
604.0	0.94925
604.2	0.94967
604.4	0.95036
604.6	0.95129
604.8	0.95212
605.0	0.95282
605.2	0.95233
605.4	0.95173
605.6	0.95044
605.8	0.94904
606.0	0.94744
606.2	0.94674
606.4	0.94602
606.6	0.94533
606.8	0.94494
607.0	0.94564
607.2	0.94643
607.4	0.94865
607.6	0.95147
607.8	0.95364
608.0	0.95696
608.2	0.95888
608.4	0.96001
608.6	0.96041
608.8	0.95978
609.0	0.9593
609.2	0.95759
609.4	0.95553
609.6	0.95289
609.8	0.95074
610.0	0.94989
610.2	0.94916
610.4	0.94881
610.6	0.9488
610.8	0.94919
611.0	0.94951
611.2	0.95057
611.4	0.95178
611.6	0.95295
611.8	0.95368
612.0	0.95375
612.2	0.95336
612.4	0.9525
612.6	0.951
612.8	0.94948
613.0	0.94794
613.2	0.94673
613.4	0.94589
613.6	0.9448
613.8	0.94419
614.0	0.94412
614.2	0.94487
614.4	0.94653
614.6	0.94846
614.8	0.95078
615.0	0.95205
615.2	0.95375
615.4	0.95486
615.6	0.95559
615.8	0.956
616.0	0.95628
616.2	0.95581
616.4	0.95492
616.6	0.9532
616.8	0.95132
617.0	0.95047
617.2	0.94913
617.4	0.94931
617.6	0.94973
617.8	0.95058
618.0	0.95128
618.2	0.95248
618.4	0.95383
618.6	0.95536
618.8	0.9573
619.0	0.95872
619.2	0.95951
619.4	0.95986
619.6	0.95911
619.8	0.95832
620.0	0.95704
620.2	0.95601
620.4	0.95477
620.6	0.95396
620.8	0.95299
621.0	0.95245
621.2	0.95198
621.4	0.95217
621.6	0.95318
621.8	0.95494
622.0	0.95688
622.2	0.9589
622.4	0.96013
622.6	0.96146
622.8	0.96203
623.0	0.96218
623.2	0.9619
623.4	0.96142
623.6	0.9606
623.8	0.95897
624.0	0.95706
624.2	0.95543
624.4	0.9534
624.6	0.95194
624.8	0.95128
625.0	0.95174
625.2	0.952
625.4	0.95304
625.6	0.95388
625.8	0.95532
626.0	0.9559
626.2	0.9574
626.4	0.95836
626.6	0.95938
626.8	0.95945
627.0	0.95899
627.2	0.95769
627.4	0.95585
627.6	0.95351
627.8	0.9516
628.0	0.94941
628.2	0.94807
628.4	0.94721
628.6	0.94627
628.8	0.94606
629.0	0.9463
629.2	0.94637
629.4	0.94761
629.6	0.94949
629.8	0.95143
630.0	0.95292
630.2	0.95393
630.4	0.95462
630.6	0.95519
630.8	0.95471
631.0	0.95481
631.2	0.95345
631.4	0.9526
631.6	0.951
631.8	0.94992
632.0	0.94799
632.2	0.94697
632.4	0.94632
632.6	0.94701
632.8	0.94775
633.0	0.94948
633.2	0.951
633.4	0.95268
633.6	0.95384
633.8	0.95572
634.0	0.9569
634.2	0.95833
634.4	0.95916
634.6	0.95892
634.8	0.95889
635.0	0.95728
635.2	0.95554
635.4	0.95316
635.6	0.95166
635.8	0.94951
636.0	0.94872
636.2	0.9485
636.4	0.94862
636.6	0.94863
636.8	0.94927
637.0	0.95068
637.2	0.95274
637.4	0.95565
637.6	0.95792
637.8	0.9605
638.0	0.96285
638.2	0.96425
638.4	0.96528
638.6	0.96545
638.8	0.96503
639.0	0.96412
639.2	0.96303
639.4	0.96171
639.6	0.9599
639.8	0.95822
640.0	0.95647
640.2	0.95551
640.4	0.95403
640.6	0.95424
640.8	0.95451
641.0	0.95585
641.2	0.95674
641.4	0.95816
641.6	0.95953
641.8	0.9604
642.0	0.96137
642.2	0.96161
642.4	0.96151
642.6	0.96211
642.8	0.96113
643.0	0.95996
643.2	0.95812
643.4	0.95628
643.6	0.95412
643.8	0.95228
644.0	0.95118
644.2	0.95016
644.4	0.94978
644.6	0.95007
644.8	0.9504
645.0	0.95135
645.2	0.95224
645.4	0.95343
645.6	0.9548
645.8	0.95632
646.0	0.95789
646.2	0.95903
646.4	0.95983
646.6	0.95891
646.8	0.95819
647.0	0.95679
647.2	0.95515
647.4	0.95363
647.6	0.95225
647.8	0.9509
648.0	0.94965
648.2	0.94893
648.4	0.94781
648.6	0.94744
648.8	0.94742
649.0	0.94819
649.2	0.94978
649.4	0.95163
649.6	0.9534
649.8	0.95451
650.0	0.95558
650.2	0.95657
650.4	0.95694
650.6	0.95725
650.8	0.95753
651.0	0.95728
651.2	0.95665
651.4	0.95596
651.6	0.95493
651.8	0.95324
652.0	0.95174
652.2	0.95095
652.4	0.95063
652.6	0.95028
652.8	0.95148
653.0	0.95228
653.2	0.95338
653.4	0.9544
653.6	0.95545
653.8	0.95668
654.0	0.95765
654.2	0.95871
654.4	0.95975
654.6	0.9604
654.8	0.96012
655.0	0.95969
655.2	0.95852
655.4	0.95723
655.6	0.9548
655.8	0.9537
656.0	0.95221
656.2	0.9515
656.4	0.95135
656.6	0.9509
656.8	0.95044
657.0	0.9512
657.2	0.95191
657.4	0.95255
657.6	0.95401
657.8	0.95585
658.0	0.95812
658.2	0.96009
658.4	0.9618
658.6	0.96286
658.8	0.96338
659.0	0.96313
659.2	0.96264
659.4	0.96217
659.6	0.96078
659.8	0.95985
660.0	0.95915
660.2	0.95851
660.4	0.95731
660.6	0.95637
660.8	0.95491
661.0	0.95452
661.2	0.95456
661.4	0.9548
661.6	0.9558
661.8	0.95702
662.0	0.95798
662.2	0.95912
662.4	0.95969
662.6	0.95975
662.8	0.95947
663.0	0.95938
663.2	0.95949
663.4	0.95827
663.6	0.95741
663.8	0.95632
664.0	0.95499
664.2	0.95287
664.4	0.95103
664.6	0.94974
664.8	0.94847
665.0	0.94823
665.2	0.94861
665.4	0.94942
665.6	0.95113
665.8	0.95222
666.0	0.95351
666.2	0.95471
666.4	0.95612
666.6	0.95751
666.8	0.95942
667.0	0.9609
667.2	0.96217
667.4	0.96265
667.6	0.96269
667.8	0.96224
668.0	0.96089
668.2	0.95955
668.4	0.95793
668.6	0.95648
668.8	0.95516
669.0	0.95433
669.2	0.95337
669.4	0.95275
669.6	0.95254
669.8	0.95166
670.0	0.95185
670.2	0.95177
670.4	0.9528
670.6	0.95411
670.8	0.95497
671.0	0.9573
671.2	0.95835
671.4	0.95875
671.6	0.95932
671.8	0.95894
672.0	0.95872
672.2	0.95832
672.4	0.95783
672.6	0.95725
672.8	0.95697
673.0	0.957
673.2	0.95656
673.4	0.95596
673.6	0.95446
673.8	0.95368
674.0	0.95352
674.2	0.95328
674.4	0.95253
674.6	0.95228
674.8	0.95314
675.0	0.95354
675.2	0.95418
675.4	0.95491
675.6	0.95485
675.8	0.95533
676.0	0.95581
676.2	0.95577
676.4	0.95551
676.6	0.95526
676.8	0.95443
677.0	0.95373
677.2	0.95291
677.4	0.9517
677.6	0.9509
677.8	0.95009
678.0	0.94916
678.2	0.94902
678.4	0.94869
678.6	0.94871
678.8	0.94887
679.0	0.94964
679.2	0.95045
679.4	0.95163
679.6	0.95296
679.8	0.95432
680.0	0.95551
680.2	0.95635
680.4	0.95726
680.6	0.95787
680.8	0.95816
681.0	0.95774
681.2	0.95696
681.4	0.95605
681.6	0.95508
681.8	0.95396
682.0	0.95267
682.2	0.95201
682.4	0.95167
682.6	0.95084
682.8	0.95046
683.0	0.95103
683.2	0.95148
683.4	0.95241
683.6	0.95391
683.8	0.95521
684.0	0.95745
684.2	0.95892
684.4	0.96047
684.6	0.96244
684.8	0.96383
685.0	0.96462
685.2	0.96502
685.4	0.96524
685.6	0.96479
685.8	0.96396
686.0	0.96253
686.2	0.9613
686.4	0.95966
686.6	0.95811
686.8	0.95642
687.0	0.9545
687.2	0.95353
687.4	0.95247
687.6	0.95249
687.8	0.95251
688.0	0.95311
688.2	0.95403
688.4	0.95524
688.6	0.9563
688.8	0.95922
689.0	0.9598
689.2	0.96186
689.4	0.96326
689.6	0.96474
689.8	0.96549
690.0	0.96556
690.2	0.96526
690.4	0.96476
690.6	0.96393
690.8	0.96232
691.0	0.96067
691.2	0.95895
691.4	0.95673
691.6	0.95519
691.8	0.95365
692.0	0.95242
692.2	0.95135
692.4	0.95104
692.6	0.95032
692.8	0.95097
693.0	0.95166
693.2	0.95256
693.4	0.95395
693.6	0.95486
693.8	0.95575
694.0	0.9572
694.2	0.95824
694.4	0.95875
694.6	0.95932
694.8	0.95883
695.0	0.95826
695.2	0.95717
695.4	0.95574
695.6	0.95392
695.8	0.95251
696.0	0.95016
696.2	0.94831
696.4	0.947
696.6	0.94523
696.8	0.94391
697.0	0.94277
697.2	0.94206
697.4	0.94265
697.6	0.94298
697.8	0.94385
698.0	0.94527
698.2	0.94695
698.4	0.94845
698.6	0.95051
698.8	0.95221
699.0	0.95378
699.2	0.95512
699.4	0.95604
699.6	0.9564
699.8	0.95676
700.0	0.9564
700.2	0.95579
700.4	0.95493
700.6	0.95384
700.8	0.95245
701.0	0.9513
701.2	0.94973
701.4	0.94855
701.6	0.94785
701.8	0.94675
702.0	0.94643
702.2	0.94624
702.4	0.94672
702.6	0.94717
702.8	0.94759
703.0	0.94924
703.2	0.94961
703.4	0.95085
703.6	0.95245
703.8	0.95323
704.0	0.95472
704.2	0.95507
704.4	0.9559
704.6	0.95679
704.8	0.95616
705.0	0.95613
705.2	0.95593
705.4	0.95547
705.6	0.95515
705.8	0.95466
706.0	0.95389
706.2	0.95365
706.4	0.95326
706.6	0.9535
706.8	0.95369
707.0	0.95407
707.2	0.95499
707.4	0.95518
707.6	0.9569
707.8	0.95822
708.0	0.95904
708.2	0.96056
708.4	0.96137
708.6	0.96198
708.8	0.96246
709.0	0.96286
709.2	0.96262
709.4	0.9623
709.6	0.96159
709.8	0.96094
710.0	0.95994
710.2	0.95846
710.4	0.9569
710.6	0.9558
710.8	0.95467
711.0	0.95351
711.2	0.95264
711.4	0.95232
711.6	0.95195
711.8	0.95208
712.0	0.95228
712.2	0.95286
712.4	0.95375
712.6	0.95478
712.8	0.95572
713.0	0.95679
713.2	0.9578
713.4	0.95837
713.6	0.95869
713.8	0.95912
714.0	0.95922
714.2	0.95878
714.4	0.95824
714.6	0.95703
714.8	0.95613
715.0	0.95464
715.2	0.9535
715.4	0.95197
715.6	0.95036
715.8	0.94922
716.0	0.9481
716.2	0.94736
716.4	0.94701
716.6	0.94643
716.8	0.94707
717.0	0.94741
717.2	0.94859
717.4	0.94932
717.6	0.9506
717.8	0.9522
718.0	0.95352
718.2	0.95516
718.4	0.95652
718.6	0.95759
718.8	0.95853
719.0	0.9594
719.2	0.95953
719.4	0.95976
719.6	0.9595
719.8	0.95877
720.0	0.95837
720.2	0.95767
720.4	0.95655
720.6	0.95529
720.8	0.95468
721.0	0.95451
721.2	0.95359
721.4	0.95364
721.6	0.95379
721.8	0.95429
722.0	0.95523
722.2	0.95614
722.4	0.95686
722.6	0.95897
722.8	0.96047
723.0	0.96185
723.2	0.96315
723.4	0.96407
723.6	0.96493
723.8	0.96564
724.0	0.96529
724.2	0.96573
724.4	0.96512
724.6	0.96419
724.8	0.96318
725.0	0.96144
725.2	0.9601
725.4	0.95819
725.6	0.95623
725.8	0.95458
726.0	0.95292
726.2	0.9515
726.4	0.95077
726.6	0.95032
726.8	0.94957
727.0	0.9495
727.2	0.94981
727.4	0.95028
727.6	0.95201
727.8	0.95309
728.0	0.95419
728.2	0.95618
728.4	0.9573
728.6	0.95908
728.8	0.9602
729.0	0.96139
729.2	0.96216
729.4	0.96245
729.6	0.96198
729.8	0.96212
730.0	0.96147
730.2	0.96056
730.4	0.9592
730.6	0.95787
730.8	0.95637
731.0	0.95502
731.2	0.95371
731.4	0.95217
731.6	0.9509
731.8	0.95058
732.0	0.94947
732.2	0.94957
732.4	0.94965
732.6	0.95054
732.8	0.95109
733.0	0.95212
733.2	0.95365
733.4	0.95472
733.6	0.95635
733.8	0.95776
734.0	0.95866
734.2	0.95954
734.4	0.96071
734.6	0.96106
734.8	0.96144
735.0	0.96133
735.2	0.96139
735.4	0.96008
735.6	0.95929
735.8	0.95855
736.0	0.95759
736.2	0.95653
736.4	0.95554
736.6	0.95453
736.8	0.95333
737.0	0.95259
737.2	0.95195
737.4	0.95113
737.6	0.95155
737.8	0.95181
738.0	0.95247
738.2	0.95304
738.4	0.95404
738.6	0.95482
738.8	0.95593
739.0	0.95796
739.2	0.95846
739.4	0.95977
739.6	0.96037
739.8	0.961
740.0	0.96183
740.2	0.9617
740.4	0.9616
740.6	0.961
740.8	0.96053
741.0	0.9598
741.2	0.95901
741.4	0.95851
741.6	0.95757
741.8	0.95709
742.0	0.9565
742.2	0.95598
742.4	0.95574
742.6	0.95526
742.8	0.95556
743.0	0.95602
743.2	0.95684
743.4	0.95772
743.6	0.95876
743.8	0.95966
744.0	0.96085
744.2	0.9621
744.4	0.963
744.6	0.96414
744.8	0.96473
745.0	0.96494
745.2	0.96558
745.4	0.96551
745.6	0.96504
745.8	0.9649
746.0	0.96402
746.2	0.96329
746.4	0.96225
746.6	0.9612
746.8	0.95973
747.0	0.95817
747.2	0.95701
747.4	0.95566
747.6	0.95471
747.8	0.95343
748.0	0.95273
748.2	0.95266
748.4	0.95235
748.6	0.95223
748.8	0.95239
749.0	0.9529
749.2	0.95314
749.4	0.95376
749.6	0.95429
749.8	0.95474
750.0	0.9557
750.2	0.95553
750.4	0.9565
750.6	0.956
750.8	0.95627
751.0	0.9558
751.2	0.9551
751.4	0.95447
751.6	0.95415
751.8	0.95291
752.0	0.95171
752.2	0.95087
752.4	0.94985
752.6	0.94898
752.8	0.94839
753.0	0.94722
753.2	0.94742
753.4	0.94734
753.6	0.9472
753.8	0.94818
754.0	0.94909
754.2	0.94995
754.4	0.9512
754.6	0.95249
754.8	0.95396
755.0	0.95569
755.2	0.95751
755.4	0.95877
755.6	0.95991
755.8	0.96091
756.0	0.96206
756.2	0.96256
756.4	0.96296
756.6	0.96277
756.8	0.96275
757.0	0.96215
757.2	0.96152
757.4	0.96067
757.6	0.95931
757.8	0.95824
758.0	0.95727
758.2	0.95619
758.4	0.95479
758.6	0.95381
758.8	0.95285
759.0	0.95222
759.2	0.95199
759.4	0.95198
759.6	0.95203
759.8	0.9528
760.0	0.95324
760.2	0.95426
760.4	0.95512
760.6	0.95635
760.8	0.95715
761.0	0.95868
761.2	0.95914
761.4	0.96003
761.6	0.96119
761.8	0.96209
762.0	0.96205
762.2	0.96282
762.4	0.96264
762.6	0.96237
762.8	0.96196
763.0	0.96105
763.2	0.96032
763.4	0.95961
763.6	0.95868
763.8	0.95744
764.0	0.95708
764.2	0.95648
764.4	0.95567
764.6	0.95486
764.8	0.95468
765.0	0.95449
765.2	0.95484
765.4	0.95507
765.6	0.95593
765.8	0.9561
766.0	0.95699
766.2	0.95828
766.4	0.95914
766.6	0.95944
766.8	0.96069
767.0	0.96171
767.2	0.96261
767.4	0.96358
767.6	0.96333
767.8	0.96371
768.0	0.96374
768.2	0.96349
768.4	0.96332
768.6	0.96301
768.8	0.96185
769.0	0.96123
769.2	0.96084
769.4	0.95976
769.6	0.95892
769.8	0.95799
770.0	0.95766
770.2	0.95703
770.4	0.95719
770.6	0.95736
770.8	0.95748
771.0	0.95783
771.2	0.95834
771.4	0.95855
771.6	0.95998
771.8	0.96063
772.0	0.96159
772.2	0.96247
772.4	0.96344
772.6	0.96426
772.8	0.9644
773.0	0.96512
773.2	0.96585
773.4	0.96576
773.6	0.96616
773.8	0.96569
774.0	0.96544
774.2	0.96447
774.4	0.96354
774.6	0.96308
774.8	0.96205
775.0	0.96052
775.2	0.95994
775.4	0.9582
775.6	0.95746
775.8	0.95703
776.0	0.95655
776.2	0.95592
776.4	0.95588
776.6	0.9556
776.8	0.956
777.0	0.9561
777.2	0.95676
777.4	0.95772
777.6	0.95892
777.8	0.95934
778.0	0.96012
778.2	0.96135
778.4	0.96219
778.6	0.96253
778.8	0.96286
779.0	0.96309
779.2	0.96325
779.4	0.96328
779.6	0.96265
779.8	0.96182
780.0	0.96146
780.2	0.95999
780.4	0.95943
780.6	0.95776
780.8	0.95664
781.0	0.9553
781.2	0.95377
781.4	0.95251
781.6	0.95201
781.8	0.95109
782.0	0.95061
782.2	0.95028
782.4	0.95076
782.6	0.95108
782.8	0.95166
783.0	0.95242
783.2	0.95376
783.4	0.9546
783.6	0.95586
783.8	0.95778
784.0	0.95907
784.2	0.96057
784.4	0.9617
784.6	0.96294
784.8	0.96418
785.0	0.96477
785.2	0.96531
785.4	0.96554
785.6	0.96556
785.8	0.96529
786.0	0.96471
786.2	0.96403
786.4	0.96324
786.6	0.96196
786.8	0.96054
787.0	0.95958
787.2	0.9582
787.4	0.95688
787.6	0.95547
787.8	0.95447
788.0	0.95361
788.2	0.95306
788.4	0.95293
788.6	0.95275
788.8	0.95343
789.0	0.95439
789.2	0.95542
789.4	0.95664
789.6	0.95816
789.8	0.95913
790.0	0.96078
790.2	0.96247
790.4	0.96392
790.6	0.96525
790.8	0.96701
791.0	0.96829
791.2	0.96965
791.4	0.97035
791.6	0.97093
791.8	0.97104
792.0	0.97158
792.2	0.97038
792.4	0.97037
792.6	0.96878
792.8	0.9675
793.0	0.96615
793.2	0.96542
793.4	0.96357
793.6	0.96247
793.8	0.9614
794.0	0.96008
794.2	0.95877
794.4	0.95803
794.6	0.95787
794.8	0.95803
795.0	0.95538
795.2	0.95607
795.4	0.95633
795.6	0.95706
795.8	0.95775
796.0	0.95914
796.2	0.96043
796.4	0.96192
796.6	0.96308
796.8	0.96494
797.0	0.96615
797.2	0.96765
797.4	0.96854
797.6	0.96919
797.8	0.96975
798.0	0.97037
798.2	0.97043
798.4	0.96992
798.6	0.96957
798.8	0.96876
799.0	0.96783
799.2	0.96688
799.4	0.96507
799.6	0.96393
799.8	0.96232
800.0	0.96089
800.2	0.95931
800.4	0.95815
800.6	0.95705
800.8	0.95557
801.0	0.95541
801.2	0.95421
801.4	0.95402
801.6	0.95388
801.8	0.95458
802.0	0.95458
802.2	0.95496
802.4	0.95593
802.6	0.95694
802.8	0.95786
803.0	0.95911
803.2	0.96008
803.4	0.96101
803.6	0.96149
803.8	0.96237
804.0	0.96258
804.2	0.96267
804.4	0.96278
804.6	0.96262
804.8	0.96219
805.0	0.96148
805.2	0.96053
805.4	0.95939
805.6	0.95829
805.8	0.95702
806.0	0.9558
806.2	0.95455
806.4	0.95338
806.6	0.95272
806.8	0.95174
807.0	0.95083
807.2	0.9508
807.4	0.95068
807.6	0.95108
807.8	0.95088
808.0	0.95182
808.2	0.95288
808.4	0.95376
808.6	0.95513
808.8	0.95593
809.0	0.95772
809.2	0.95917
809.4	0.96055
809.6	0.96223
809.8	0.96386
810.0	0.96494
810.2	0.96578
810.4	0.96671
810.6	0.96713
810.8	0.9673
811.0	0.96748
811.2	0.96727
811.4	0.96679
811.6	0.96605
811.8	0.96473
812.0	0.96375
812.2	0.96253
812.4	0.96121
812.6	0.95976
812.8	0.95851
813.0	0.95749
813.2	0.95661
813.4	0.95515
813.6	0.95471
813.8	0.9542
814.0	0.95407
814.2	0.95356
814.4	0.95372
814.6	0.95428
814.8	0.9548
815.0	0.95565
815.2	0.95665
815.4	0.95734
815.6	0.95891
815.8	0.95961
816.0	0.9611
816.2	0.96217
816.4	0.96312
816.6	0.96378
816.8	0.96418
817.0	0.96518
817.2	0.96518
817.4	0.96508
817.6	0.9648
817.8	0.96449
818.0	0.96367
818.2	0.96263
818.4	0.96168
818.6	0.96029
818.8	0.95955
819.0	0.95829
819.2	0.95706
819.4	0.95605
819.6	0.95506
819.8	0.95403
820.0	0.95334
820.2	0.95269
820.4	0.95274
820.6	0.95279
820.8	0.95295
821.0	0.95331
821.2	0.95408
821.4	0.95462
821.6	0.95575
821.8	0.95682
822.0	0.95791
822.2	0.95928
822.4	0.96064
822.6	0.96217
822.8	0.96333
823.0	0.96457
823.2	0.96592
823.4	0.9665
823.6	0.96722
823.8	0.96725
824.0	0.96761
824.2	0.96759
824.4	0.96674
824.6	0.9663
824.8	0.96513
825.0	0.96426
825.2	0.96332
825.4	0.96172
825.6	0.96035
825.8	0.95888
826.0	0.95771
826.2	0.95624
826.4	0.95548
826.6	0.9546
826.8	0.95361
827.0	0.95335
827.2	0.9528
827.4	0.95256
827.6	0.95251
827.8	0.95283
828.0	0.95361
828.2	0.9544
828.4	0.95613
828.6	0.95748
828.8	0.95894
829.0	0.96032
829.2	0.96188
829.4	0.96331
829.6	0.96493
829.8	0.96588
830.0	0.96679
830.2	0.96791
830.4	0.96808
830.6	0.96877
830.8	0.96897
831.0	0.96873
831.2	0.96829
831.4	0.96776
831.6	0.96683
831.8	0.96589
832.0	0.96467
832.2	0.96357
832.4	0.96192
832.6	0.9605
832.8	0.95886
833.0	0.95786
833.2	0.95639
833.4	0.95513
833.6	0.95423
833.8	0.95398
834.0	0.95356
834.2	0.95276
834.4	0.95302
834.6	0.95325
834.8	0.95371
835.0	0.95473
835.2	0.95565
835.4	0.95689
835.6	0.95821
835.8	0.95954
836.0	0.96107
836.2	0.96246
836.4	0.96386
836.6	0.96542
836.8	0.96654
837.0	0.96828
837.2	0.96885
837.4	0.96962
837.6	0.96999
837.8	0.97023
838.0	0.97083
838.2	0.97018
838.4	0.96945
838.6	0.96925
838.8	0.96806
839.0	0.96686
839.2	0.96572
839.4	0.96426
839.6	0.96266
839.8	0.96146
840.0	0.96019
840.2	0.95892
840.4	0.95778
840.6	0.95654
840.8	0.95592
841.0	0.95524
841.2	0.95528
841.4	0.95524
841.6	0.95532
841.8	0.95594
842.0	0.95599
842.2	0.957
842.4	0.95769
842.6	0.95896
842.8	0.96006
843.0	0.9612
843.2	0.96273
843.4	0.96366
843.6	0.96487
843.8	0.96638
844.0	0.96711
844.2	0.96805
844.4	0.96924
844.6	0.96971
844.8	0.96994
845.0	0.9696
845.2	0.96975
845.4	0.969
845.6	0.9685
845.8	0.96747
846.0	0.96629
846.2	0.96556
846.4	0.96423
846.6	0.96247
846.8	0.96131
847.0	0.95995
847.2	0.95869
847.4	0.95766
847.6	0.957
847.8	0.95596
848.0	0.95536
848.2	0.95489
848.4	0.95446
848.6	0.95457
848.8	0.9548
849.0	0.95489
849.2	0.95531
849.4	0.95588
849.6	0.95667
849.8	0.95756
850.0	0.95851
850.2	0.95978
850.4	0.96023
850.6	0.96169
850.8	0.96221
851.0	0.96357
851.2	0.9639
851.4	0.96426
851.6	0.9647
851.8	0.9647
852.0	0.96487
852.2	0.96479
852.4	0.96417
852.6	0.96359
852.8	0.96343
853.0	0.96228
853.2	0.96144
853.4	0.9599
853.6	0.95921
853.8	0.95804
854.0	0.95676
854.2	0.95596
854.4	0.95474
854.6	0.95365
854.8	0.95247
855.0	0.95203
855.2	0.95209
855.4	0.95132
855.6	0.95132
855.8	0.95097
856.0	0.95181
856.2	0.95184
856.4	0.95282
856.6	0.95376
856.8	0.9549
857.0	0.95555
857.2	0.95665
857.4	0.95795
857.6	0.95883
857.8	0.96034
858.0	0.9612
858.2	0.96179
858.4	0.96249
858.6	0.96359
858.8	0.96373
859.0	0.96393
859.2	0.96415
859.4	0.96402
859.6	0.96373
859.8	0.96345
860.0	0.96283
860.2	0.96209
860.4	0.96136
860.6	0.96075
860.8	0.95985
861.0	0.95905
861.2	0.95776
861.4	0.95661
861.6	0.95556
861.8	0.95486
862.0	0.95377
862.2	0.95362
862.4	0.95336
862.6	0.95285
862.8	0.95272
863.0	0.95341
863.2	0.95348
863.4	0.95466
863.6	0.95544
863.8	0.95641
864.0	0.95757
864.2	0.95869
864.4	0.96044
864.6	0.96134
864.8	0.96297
865.0	0.96434
865.2	0.9657
865.4	0.96654
865.6	0.96793
865.8	0.96869
866.0	0.96988
866.2	0.97047
866.4	0.97103
866.6	0.97084
866.8	0.97079
867.0	0.9708
867.2	0.97018
867.4	0.96962
867.6	0.96933
867.8	0.96799
868.0	0.96635
868.2	0.96553
868.4	0.96406
868.6	0.96238
868.8	0.96081
869.0	0.96044
869.2	0.95898
869.4	0.95734
869.6	0.95655
869.8	0.95602
870.0	0.95558
870.2	0.95589
870.4	0.95613
870.6	0.95647
870.8	0.95613
871.0	0.95726
871.2	0.95797
871.4	0.95842
871.6	0.95979
871.8	0.96096
872.0	0.96119
872.2	0.96304
872.4	0.96414
872.6	0.96487
872.8	0.96592
873.0	0.96736
873.2	0.96882
873.4	0.96924
873.6	0.96998
873.8	0.96999
874.0	0.97066
874.2	0.97141
874.4	0.9707
874.6	0.97072
874.8	0.97001
875.0	0.96924
875.2	0.96832
875.4	0.96727
875.6	0.96629
875.8	0.965
876.0	0.96329
876.2	0.96333
876.4	0.96181
876.6	0.96049
876.8	0.96027
877.0	0.96025
877.2	0.96005
877.4	0.95918
877.6	0.95885
877.8	0.95842
878.0	0.95895
878.2	0.95838
878.4	0.95815
878.6	0.95885
878.8	0.96049
879.0	0.96043
879.2	0.96075
879.4	0.96154
879.6	0.96224
879.8	0.96346
880.0	0.96471
880.2	0.96543
880.4	0.96598
880.6	0.96698
880.8	0.96742
881.0	0.96833
881.2	0.9689
881.4	0.96876
881.6	0.9684
881.8	0.96667
882.0	0.9676
882.2	0.968
882.4	0.96634
882.6	0.96507
882.8	0.96347
883.0	0.96318
883.2	0.96183
883.4	0.96029
883.6	0.96005
883.8	0.95917
884.0	0.95751
884.2	0.95658
884.4	0.95557
884.6	0.9541
884.8	0.9537
885.0	0.95349
885.2	0.95338
885.4	0.95327
885.6	0.95325
885.8	0.95319
886.0	0.95401
886.2	0.95435
886.4	0.95468
886.6	0.95577
886.8	0.95686
887.0	0.95765
887.2	0.95866
887.4	0.95949
887.6	0.96078
887.8	0.96262
888.0	0.96335
888.2	0.96417
888.4	0.96567
888.6	0.96654
888.8	0.96635
889.0	0.96625
889.2	0.96642
889.4	0.9673
889.6	0.96784
889.8	0.96716
890.0	0.96647
890.2	0.96584
890.4	0.96531
890.6	0.96458
890.8	0.96318
891.0	0.96279
891.2	0.96203
891.4	0.96131
891.6	0.95998
891.8	0.95821
892.0	0.95755
892.2	0.95612
892.4	0.95589
892.6	0.95474
892.8	0.95378
893.0	0.95306
893.2	0.95347
893.4	0.95389
893.6	0.95302
893.8	0.95275
894.0	0.95344
894.2	0.95428
894.4	0.95476
894.6	0.95619
894.8	0.95707
895.0	0.95658
895.2	0.95914
895.4	0.96049
895.6	0.9614
895.8	0.9623
896.0	0.96393
896.2	0.96523
896.4	0.96558
896.6	0.96643
896.8	0.96705
897.0	0.96716
897.2	0.96725
897.4	0.96753
897.6	0.96846
897.8	0.96789
898.0	0.96767
898.2	0.96806
898.4	0.96779
898.6	0.9672
898.8	0.96599
899.0	0.96475
899.2	0.96453
899.4	0.96431
899.6	0.96332
899.8	0.96149
900.0	0.96092
900.2	0.96011
900.4	0.95979
900.6	0.95913
900.8	0.95915
901.0	0.95768
901.2	0.95879
901.4	0.95882
901.6	0.95906
901.8	0.95908
902.0	0.95967
902.2	0.96092
902.4	0.96118
902.6	0.96149
902.8	0.96197
903.0	0.96286
903.2	0.96318
903.4	0.96453
903.6	0.96488
903.8	0.96585
904.0	0.96606
904.2	0.96654
904.4	0.967
904.6	0.96794
904.8	0.96865
905.0	0.96954
905.2	0.97026
905.4	0.97048
905.6	0.97052
905.8	0.96918
906.0	0.96936
906.2	0.96935
906.4	0.96851
906.6	0.96711
906.8	0.9663
907.0	0.96512
907.2	0.96382
907.4	0.96252
907.6	0.96072
907.8	0.9589
908.0	0.95811
908.2	0.95708
908.4	0.95592
908.6	0.95516
908.8	0.9549
909.0	0.95425
909.2	0.95484
909.4	0.95492
909.6	0.95492
909.8	0.95508
910.0	0.95533
910.2	0.95601
910.4	0.95685
910.6	0.95724
910.8	0.95801
911.0	0.95889
911.2	0.95985
911.4	0.96114
911.6	0.96139
911.8	0.96228
912.0	0.96283
912.2	0.9637
912.4	0.96514
912.6	0.9665
912.8	0.96624
913.0	0.9679
913.2	0.96901
913.4	0.96818
913.6	0.96778
913.8	0.96879
914.0	0.96886
914.2	0.96899
914.4	0.96856
914.6	0.96824
914.8	0.96693
915.0	0.96569
915.2	0.96476
915.4	0.96355
915.6	0.96205
915.8	0.96098
916.0	0.96055
916.2	0.95956
916.4	0.95881
916.6	0.95777
916.8	0.95797
917.0	0.95728
917.2	0.95621
917.4	0.95575
917.6	0.95554
917.8	0.95593
918.0	0.95606
918.2	0.95615
918.4	0.95573
918.6	0.95604
918.8	0.9571
919.0	0.95713
919.2	0.95805
919.4	0.95852
919.6	0.95888
919.8	0.95985
920.0	0.96047
920.2	0.96168
920.4	0.96272
920.6	0.96352
920.8	0.96471
921.0	0.96628
921.2	0.96727
921.4	0.96711
921.6	0.96742
921.8	0.96801
922.0	0.96845
922.2	0.96922
922.4	0.96916
922.6	0.96825
922.8	0.96705
923.0	0.96618
923.2	0.96642
923.4	0.96583
923.6	0.96444
923.8	0.96284
924.0	0.96253
924.2	0.96154
924.4	0.96031
924.6	0.96035
924.8	0.95971
925.0	0.9589
925.2	0.95766
925.4	0.95734
925.6	0.95757
925.8	0.95726
926.0	0.95624
926.2	0.9551
926.4	0.95547
926.6	0.95578
926.8	0.95619
927.0	0.95629
927.2	0.95723
927.4	0.95838
927.6	0.95954
927.8	0.95928
928.0	0.96021
928.2	0.96146
928.4	0.9627
928.6	0.96363
928.8	0.96435
929.0	0.96573
929.2	0.96645
929.4	0.9676
929.6	0.96868
929.8	0.96811
930.0	0.9686
930.2	0.96882
930.4	0.97066
930.6	0.96978
930.8	0.96975
931.0	0.96986
931.2	0.97136
931.4	0.96768
931.6	0.96768
931.8	0.96819
932.0	0.96767
932.2	0.96647
932.4	0.96654
932.6	0.9653
932.8	0.96398
933.0	0.96267
933.2	0.96191
933.4	0.96123
933.6	0.95926
933.8	0.95954
934.0	0.95615
934.2	0.9575
934.4	0.95826
934.6	0.95644
934.8	0.95536
935.0	0.95444
935.2	0.95458
935.4	0.95567
935.6	0.95492
935.8	0.95603
936.0	0.95599
936.2	0.95588
936.4	0.95685
936.6	0.95746
936.8	0.95728
937.0	0.95963
937.2	0.96034
937.4	0.9604
937.6	0.96199
937.8	0.96153
938.0	0.96425
938.2	0.96389
938.4	0.96359
938.6	0.96512
938.8	0.96487
939.0	0.96547
939.2	0.96559
939.4	0.96571
939.6	0.96529
939.8	0.96573
940.0	0.96511
940.2	0.96453
940.4	0.96412
940.6	0.96285
940.8	0.9619
941.0	0.96186
941.2	0.96046
941.4	0.95991
941.6	0.95945
941.8	0.95838
942.0	0.95718
942.2	0.95624
942.4	0.95382
942.6	0.95497
942.8	0.9541
943.0	0.95344
943.2	0.95228
943.4	0.95154
943.6	0.95165
943.8	0.94933
944.0	0.95271
944.2	0.95191
944.4	0.95165
944.6	0.95193
944.8	0.95264
945.0	0.9529
945.2	0.95289
945.4	0.95474
945.6	0.95593
945.8	0.95562
946.0	0.95805
946.2	0.95745
946.4	0.95881
946.6	0.95956
946.8	0.96064
947.0	0.96131
947.2	0.96118
947.4	0.96226
947.6	0.96285
947.8	0.96192
948.0	0.96464
948.2	0.96416
948.4	0.9637
948.6	0.96411
948.8	0.96456
949.0	0.96375
949.2	0.96358
949.4	0.96348
949.6	0.96267
949.8	0.96057
950.0	0.96186
950.2	0.96051
950.4	0.95933
950.6	0.95856
950.8	0.95783
951.0	0.95684
951.2	0.95584
951.4	0.95471
951.6	0.95533
951.8	0.95465
952.0	0.95406
952.2	0.95443
952.4	0.95369
952.6	0.95323
952.8	0.95357
953.0	0.9535
953.2	0.95391
953.4	0.95381
953.6	0.9542
953.8	0.95443
954.0	0.95503
954.2	0.95584
954.4	0.95715
954.6	0.95787
954.8	0.95844
955.0	0.95909
955.2	0.96066
955.4	0.9613
955.6	0.96283
955.8	0.96347
956.0	0.96462
956.2	0.96533
956.4	0.96565
956.6	0.96681
956.8	0.96725
957.0	0.96789
957.2	0.96749
957.4	0.96756
957.6	0.96759
957.8	0.96739
958.0	0.96767
958.2	0.96714
958.4	0.96667
958.6	0.96606
958.8	0.9657
959.0	0.96531
959.2	0.96496
959.4	0.96393
959.6	0.96373
959.8	0.96261
960.0	0.96188
960.2	0.96103
960.4	0.961
960.6	0.9604
960.8	0.95962
961.0	0.95884
961.2	0.95804
961.4	0.9586
961.6	0.95793
961.8	0.95733
962.0	0.95743
962.2	0.9579
962.4	0.95763
962.6	0.95842
962.8	0.95862
963.0	0.95915
963.2	0.95966
963.4	0.96051
963.6	0.96205
963.8	0.96208
964.0	0.96251
964.2	0.96344
964.4	0.96466
964.6	0.96537
964.8	0.96568
965.0	0.96669
965.2	0.96778
965.4	0.96781
965.6	0.96814
965.8	0.96898
966.0	0.96832
966.2	0.96875
966.4	0.96919
966.6	0.96926
966.8	0.96932
967.0	0.96901
967.2	0.9681
967.4	0.96812
967.6	0.96755
967.8	0.96606
968.0	0.96565
968.2	0.96513
968.4	0.9644
968.6	0.96374
968.8	0.9632
969.0	0.96188
969.2	0.96054
969.4	0.95975
969.6	0.95904
969.8	0.95752
970.0	0.9574
970.2	0.95726
970.4	0.95589
970.6	0.95553
970.8	0.9553
971.0	0.95449
971.2	0.95429
971.4	0.95409
971.6	0.95487
971.8	0.9545
972.0	0.95488
972.2	0.95525
972.4	0.95569
972.6	0.95524
972.8	0.95537
973.0	0.9564
973.2	0.95772
973.4	0.95775
973.6	0.95827
973.8	0.95926
974.0	0.95956
974.2	0.96011
974.4	0.96118
974.6	0.96213
974.8	0.96191
975.0	0.96305
975.2	0.96399
975.4	0.96434
975.6	0.96372
975.8	0.96531
976.0	0.96544
976.2	0.96453
976.4	0.96489
976.6	0.96507
976.8	0.96488
977.0	0.9644
977.2	0.96414
977.4	0.96374
977.6	0.96244
977.8	0.96234
978.0	0.96213
978.2	0.96138
978.4	0.96059
978.6	0.95962
978.8	0.9587
979.0	0.95743
979.2	0.95672
979.4	0.95631
979.6	0.95458
979.8	0.95404
980.0	0.9541
980.2	0.95279
980.4	0.95163
980.6	0.95158
980.8	0.9517
981.0	0.95124
981.2	0.95148
981.4	0.95127
981.6	0.95138
981.8	0.95149
982.0	0.95191
982.2	0.95336
982.4	0.95305
982.6	0.95403
982.8	0.95472
983.0	0.95499
983.2	0.95581
983.4	0.95733
983.6	0.95766
983.8	0.95792
984.0	0.95885
984.2	0.96
984.4	0.96061
984.6	0.96093
984.8	0.96228
985.0	0.96277
985.2	0.96379
985.4	0.96461
985.6	0.96392
985.8	0.96376
986.0	0.96408
986.2	0.96444
986.4	0.96426
986.6	0.96402
986.8	0.96383
987.0	0.9632
987.2	0.9626
987.4	0.96235
987.6	0.96125
987.8	0.96045
988.0	0.95921
988.2	0.9586
988.4	0.9581
988.6	0.95789
988.8	0.95727
989.0	0.95626
989.2	0.95589
989.4	0.9553
989.6	0.95353
989.8	0.95351
990.0	0.95328
990.2	0.95255
990.4	0.95257
990.6	0.95328
990.8	0.95276
991.0	0.95244
991.2	0.9529
991.4	0.95325
991.6	0.95297
991.8	0.95321
992.0	0.95423
992.2	0.95515
992.4	0.9557
992.6	0.957
992.8	0.9575
993.0	0.95815
993.2	0.95974
993.4	0.96121
993.6	0.96177
993.8	0.96256
994.0	0.96324
994.2	0.96323
994.4	0.96378
994.6	0.96502
994.8	0.96517
995.0	0.96613
995.2	0.96692
995.4	0.96566
995.6	0.96602
995.8	0.96644
996.0	0.96709
996.2	0.96698
996.4	0.96684
996.6	0.96641
996.8	0.96635
997.0	0.96537
997.2	0.96383
997.4	0.96376
997.6	0.9629
997.8	0.96235
998.0	0.96143
998.2	0.96069
998.4	0.95976
998.6	0.95836
998.8	0.95804
999.0	0.957
999.2	0.95567
999.4	0.95545
999.6	0.95468
999.8	0.95454
1000.0	0.95127
1000.2	0.94827
1000.4	0.94805
1000.6	0.94779
1000.8	0.94723
1001.0	0.94751
1001.2	0.94859
1001.4	0.94853
1001.6	0.94854
1001.8	0.94954
1002.0	0.9509
1002.2	0.9513
1002.4	0.95251
1002.6	0.95339
1002.8	0.95379
1003.0	0.95461
1003.2	0.95666
1003.4	0.95745
1003.6	0.95816
1003.8	0.95915
1004.0	0.95987
1004.2	0.96084
1004.4	0.9622
1004.6	0.96263
1004.8	0.96314
1005.0	0.96398
1005.2	0.9642
1005.4	0.9643
1005.6	0.96526
1005.8	0.96507
1006.0	0.96501
1006.2	0.96524
1006.4	0.96509
1006.6	0.96411
1006.8	0.964
1007.0	0.96311
1007.2	0.9621
1007.4	0.96213
1007.6	0.96105
1007.8	0.96032
1008.0	0.9594
1008.2	0.95872
1008.4	0.95755
1008.6	0.95729
1008.8	0.95584
1009.0	0.95463
1009.2	0.95399
1009.4	0.953
1009.6	0.95206
1009.8	0.95128
1010.0	0.94976
1010.2	0.94946
1010.4	0.94922
1010.6	0.94827
1010.8	0.94787
1011.0	0.94793
1011.2	0.94784
1011.4	0.94786
1011.6	0.94803
1011.8	0.9479
1012.0	0.94842
1012.2	0.94895
1012.4	0.94864
1012.6	0.94952
1012.8	0.95055
1013.0	0.9505
1013.2	0.95119
1013.4	0.95289
1013.6	0.95269
1013.8	0.95418
1014.0	0.95508
1014.2	0.95444
1014.4	0.95609
1014.6	0.95741
1014.8	0.95738
1015.0	0.95809
1015.2	0.95823
1015.4	0.95863
1015.6	0.95939
1015.8	0.95952
1016.0	0.95905
1016.2	0.95951
1016.4	0.95884
1016.6	0.95929
1016.8	0.95887
1017.0	0.95835
1017.2	0.95732
1017.4	0.95773
1017.6	0.9563
1017.8	0.95596
1018.0	0.9546
1018.2	0.95336
1018.4	0.95316
1018.6	0.95297
1018.8	0.95181
1019.0	0.95079
1019.2	0.94985
1019.4	0.94909
1019.6	0.94883
1019.8	0.94724
1020.0	0.94574
1020.2	0.9461
1020.4	0.9458
1020.6	0.9443
1020.8	0.94475
1021.0	0.94432
1021.2	0.94431
1021.4	0.94437
1021.6	0.94433
1021.8	0.9443
1022.0	0.94504
1022.2	0.94463
1022.4	0.94496
1022.6	0.94592
1022.8	0.94616
1023.0	0.94716
1023.2	0.94778
1023.4	0.94776
1023.6	0.94916
1023.8	0.94988
1024.0	0.95025
1024.2	0.95169
1024.4	0.95208
1024.6	0.95228
1024.8	0.95364
1025.0	0.95467
1025.2	0.95498
1025.4	0.95515
1025.6	0.95585
1025.8	0.95603
1026.0	0.95646
1026.2	0.95675
1026.4	0.95672
1026.6	0.95705
1026.8	0.95628
1027.0	0.95531
1027.2	0.95663
1027.4	0.95594
1027.6	0.95545
1027.8	0.95568
1028.0	0.95391
1028.2	0.95442
1028.4	0.95374
1028.6	0.95179
1028.8	0.95207
1029.0	0.95139
1029.2	0.95036
1029.4	0.94996
1029.6	0.9493
1029.8	0.94749
1030.0	0.94864
1030.2	0.94762
1030.4	0.94689
1030.6	0.94676
1030.8	0.94462
1031.0	0.94511
1031.2	0.94596
1031.4	0.94539
1031.6	0.94569
1031.8	0.94528
1032.0	0.9452
1032.2	0.94609
1032.4	0.94673
1032.6	0.94659
1032.8	0.94741
1033.0	0.94743
1033.2	0.94853
1033.4	0.94896
1033.6	0.94957
1033.8	0.95013
1034.0	0.95077
1034.2	0.9509
1034.4	0.95332
1034.6	0.95346
1034.8	0.95465
1035.0	0.9553
1035.2	0.95543
1035.4	0.95661
1035.6	0.95704
1035.8	0.95727
1036.0	0.95892
1036.2	0.95807
1036.4	0.95925
1036.6	0.95851
1036.8	0.95991
1037.0	0.96002
1037.2	0.95927
1037.4	0.95983
1037.6	0.95982
1037.8	0.95778
1038.0	0.95834
1038.2	0.95867
1038.4	0.95677
1038.6	0.95643
1038.8	0.95526
1039.0	0.95457
1039.2	0.95437
1039.4	0.95321
1039.6	0.95192
1039.8	0.95135
1040.0	0.94988
1040.2	0.94995
1040.4	0.94888
1040.6	0.94763
1040.8	0.94712
1041.0	0.94642
1041.2	0.94547
1041.4	0.94581
1041.6	0.94464
1041.8	0.94428
1042.0	0.94406
1042.2	0.94362
1042.4	0.94407
1042.6	0.94367
1042.8	0.94294
1043.0	0.94323
1043.2	0.94366
1043.4	0.94507
1043.6	0.94467
1043.8	0.94434
1044.0	0.94598
1044.2	0.9453
1044.4	0.94672
1044.6	0.94704
1044.8	0.94795
1045.0	0.949
1045.2	0.94889
1045.4	0.95027
1045.6	0.95088
1045.8	0.95221
1046.0	0.95227
1046.2	0.95298
1046.4	0.95178
1046.6	0.95383
1046.8	0.95407
1047.0	0.95416
1047.2	0.95505
1047.4	0.95512
1047.6	0.95464
1047.8	0.95619
1048.0	0.95634
1048.2	0.95525
1048.4	0.95449
1048.6	0.95433
1048.8	0.95287
1049.0	0.95294
1049.2	0.95267
1049.4	0.95289
1049.6	0.95258
1049.8	0.95102
1050.0	0.95058
1050.2	0.94925
1050.4	0.95029
1050.6	0.94857
1050.8	0.94673
1051.0	0.94627
1051.2	0.94628
1051.4	0.94575
1051.6	0.94519
1051.8	0.94342
1052.0	0.94452
1052.2	0.94311
1052.4	0.94236
1052.6	0.94253
1052.8	0.94176
1053.0	0.94242
1053.2	0.94108
1053.4	0.94201
1053.6	0.94202
1053.8	0.94274
1054.0	0.94337
1054.2	0.94337
1054.4	0.94441
1054.6	0.9441
1054.8	0.944
1055.0	0.94523
1055.2	0.94582
1055.4	0.94592
1055.6	0.94739
1055.8	0.94766
1056.0	0.94935
1056.2	0.95078
1056.4	0.95032
1056.6	0.95294
1056.8	0.95182
1057.0	0.95211
1057.2	0.9549
1057.4	0.95309
1057.6	0.95549
1057.8	0.9554
1058.0	0.95611
1058.2	0.95639
1058.4	0.9567
1058.6	0.9572
1058.8	0.95728
1059.0	0.9579
1059.2	0.95571
1059.4	0.95645
1059.6	0.95638
1059.8	0.95524
1060.0	0.95516
1060.2	0.95469
1060.4	0.9524
1060.6	0.95358
1060.8	0.95236
1061.0	0.95279
1061.2	0.9509
1061.4	0.9502
1061.6	0.94915
1061.8	0.94926
1062.0	0.94793
1062.2	0.94669
1062.4	0.94546
1062.6	0.94552
1062.8	0.94379
1063.0	0.94508
1063.2	0.94372
1063.4	0.94093
1063.6	0.94218
1063.8	0.94036
1064.0	0.94146
1064.2	0.94069
1064.4	0.93903
1064.6	0.93952
1064.8	0.94026
1065.0	0.9406
1065.2	0.94134
1065.4	0.94154
1065.6	0.94072
1065.8	0.94168
1066.0	0.94329
1066.2	0.94207
1066.4	0.94297
1066.6	0.94245
1066.8	0.9456
1067.0	0.94755
1067.2	0.94757
1067.4	0.9484
1067.6	0.94808
1067.8	0.94861
1068.0	0.95081
1068.2	0.95157
1068.4	0.95035
1068.6	0.95263
1068.8	0.95121
1069.0	0.95395
1069.2	0.95343
1069.4	0.9552
1069.6	0.9545
1069.8	0.95517
1070.0	0.95572
1070.2	0.95592
1070.4	0.95531
1070.6	0.95574
1070.8	0.95505
1071.0	0.95474
1071.2	0.95597
1071.4	0.95536
1071.6	0.95546
1071.8	0.95452
1072.0	0.95419
1072.2	0.9543
1072.4	0.95342
1072.6	0.9529
1072.8	0.95153
1073.0	0.95209
1073.2	0.95113
1073.4	0.9489
1073.6	0.94996
1073.8	0.94765
1074.0	0.94798
1074.2	0.94649
1074.4	0.94728
1074.6	0.94647
1074.8	0.94577
1075.0	0.94596
1075.2	0.94567
1075.4	0.94639
1075.6	0.94397
1075.8	0.94413
1076.0	0.94487
1076.2	0.94444
1076.4	0.94438
1076.6	0.94443
1076.8	0.94474
1077.0	0.94487
1077.2	0.94604
1077.4	0.94709
1077.6	0.94716
1077.8	0.9484
1078.0	0.94864
1078.2	0.94879
1078.4	0.94847
1078.6	0.94931
1078.8	0.95094
1079.0	0.95132
1079.2	0.95168
1079.4	0.95354
1079.6	0.95254
1079.8	0.9549
1080.0	0.9549
1080.2	0.95501
1080.4	0.95492
1080.6	0.95641
1080.8	0.95702
1081.0	0.95468
1081.2	0.95742
1081.4	0.95661
1081.6	0.95845
1081.8	0.95871
1082.0	0.95746
1082.2	0.95876
1082.4	0.95779
1082.6	0.95696
1082.8	0.9549
1083.0	0.95765
1083.2	0.95648
1083.4	0.95617
1083.6	0.95449
1083.8	0.95374
1084.0	0.95388
1084.2	0.95221
1084.4	0.95273
1084.6	0.95234
1084.8	0.95021
1085.0	0.95007
1085.2	0.94815
1085.4	0.94982
1085.6	0.94889
1085.8	0.94879
1086.0	0.94839
1086.2	0.94566
1086.4	0.94447
1086.6	0.94682
1086.8	0.94492
1087.0	0.94443
1087.2	0.94536
1087.4	0.94446
1087.6	0.94404
1087.8	0.94398
1088.0	0.94271
1088.2	0.94437
1088.4	0.94367
1088.6	0.94501
1088.8	0.94469
1089.0	0.94511
1089.2	0.94544
1089.4	0.94722
1089.6	0.94536
1089.8	0.94593
1090.0	0.94784
1090.2	0.94789
1090.4	0.94906
1090.6	0.94994
1090.8	0.94968
1091.0	0.95324
1091.2	0.94982
1091.4	0.95321
1091.6	0.95155
1091.8	0.95222
1092.0	0.95356
1092.2	0.95354
1092.4	0.95586
1092.6	0.95764
1092.8	0.95538
1093.0	0.95428
1093.2	0.9553
1093.4	0.95677
1093.6	0.95527
1093.8	0.95597
1094.0	0.95622
1094.2	0.95411
1094.4	0.95017
1094.6	0.95201
1094.8	0.95431
1095.0	0.95324
1095.2	0.95223
1095.4	0.95077
1095.6	0.94909
1095.8	0.94968
1096.0	0.95082
1096.2	0.94743
1096.4	0.94873
1096.6	0.94645
1096.8	0.94694
1097.0	0.94487
1097.2	0.94409
1097.4	0.94248
1097.6	0.94458
1097.8	0.94333
1098.0	0.94287
1098.2	0.94022
1098.4	0.9434
1098.6	0.94299
1098.8	0.94074
1099.0	0.93953
1099.2	0.94073
1099.4	0.93961
1099.6	0.93982
1099.8	0.94082
1100.0	0.93929
1100.2	0.93967
1100.4	0.93939
1100.6	0.9403
1100.8	0.94057
1101.0	0.94147
1101.2	0.94231
1101.4	0.94088
1101.6	0.93966
1101.8	0.94241
1102.0	0.94254
1102.2	0.94409
1102.4	0.9465
1102.6	0.94479
1102.8	0.94311
1103.0	0.94598
1103.2	0.94845
1103.4	0.94643
1103.6	0.94543
1103.8	0.94949
1104.0	0.95213
1104.2	0.9492
1104.4	0.94997
1104.6	0.94961
1104.8	0.9505
1105.0	0.95261
1105.2	0.94959
1105.4	0.95019
1105.6	0.95006
1105.8	0.95317
1106.0	0.95191
1106.2	0.95204
1106.4	0.95209
1106.6	0.95364
1106.8	0.95064
1107.0	0.94712
1107.2	0.94826
1107.4	0.95058
1107.6	0.94772
1107.8	0.94759
1108.0	0.94783
1108.2	0.94597
1108.4	0.94658
1108.6	0.94597
1108.8	0.9439
1109.0	0.94349
1109.2	0.94225
1109.4	0.94381
1109.6	0.93958
1109.8	0.94216
1110.0	0.93889
1110.2	0.94175
1110.4	0.93774
1110.6	0.93749
1110.8	0.93699
1111.0	0.93758
1111.2	0.93845
1111.4	0.9389
1111.6	0.93915
1111.8	0.93661
1112.0	0.93605
1112.2	0.93854
1112.4	0.93512
1112.6	0.93845
1112.8	0.93687
1113.0	0.93856
1113.2	0.93819
1113.4	0.94038
1113.6	0.94065
1113.8	0.94182
1114.0	0.93975
1114.2	0.94148
1114.4	0.94365
1114.6	0.94321
1114.8	0.94478
1115.0	0.94599
1115.2	0.94477
1115.4	0.94559
1115.6	0.95018
1115.8	0.94796
1116.0	0.94939
1116.2	0.94969
1116.4	0.95337
1116.6	0.94709
1116.8	0.95125
1117.0	0.95115
1117.2	0.95293
1117.4	0.95374
1117.6	0.95405
1117.8	0.95521
1118.0	0.95337
1118.2	0.95132
1118.4	0.95101
1118.6	0.95064
1118.8	0.95232
1119.0	0.95187
1119.2	0.95286
1119.4	0.95174
1119.6	0.95039
1119.8	0.95372
1120.0	0.96839
1120.2	0.96779
1120.4	0.96719
1120.6	0.96659
1120.8	0.96599
1121.0	0.96539
1121.2	0.96478
1121.4	0.96417
1121.6	0.96356
1121.8	0.96295
1122.0	0.96235
1122.2	0.96189
1122.4	0.96143
1122.6	0.96097
1122.8	0.96051
1123.0	0.96005
1123.2	0.95969
1123.4	0.95933
1123.6	0.95896
1123.8	0.9586
1124.0	0.95825
1124.2	0.95809
1124.4	0.95793
1124.6	0.95778
1124.8	0.95762
1125.0	0.95749
1125.2	0.95802
1125.4	0.95855
1125.6	0.95908
1125.8	0.95961
1126.0	0.96014
1126.2	0.96074
1126.4	0.96133
1126.6	0.96193
1126.8	0.96252
1127.0	0.96312
1127.2	0.96375
1127.4	0.96439
1127.6	0.96503
1127.8	0.96566
1128.0	0.96632
1128.2	0.96735
1128.4	0.96839
1128.6	0.96942
1128.8	0.97046
1129.0	0.97146
1129.2	0.97164
1129.4	0.97183
1129.6	0.97201
1129.8	0.97219
1130.0	0.97238
1130.2	0.9726
1130.4	0.97283
1130.6	0.97305
1130.8	0.97328
1131.0	0.97348
1131.2	0.97322
1131.4	0.97295
1131.6	0.97268
1131.8	0.97242
1132.0	0.97215
1132.2	0.97169
1132.4	0.97124
1132.6	0.97078
1132.8	0.97033
1133.0	0.96987
1133.2	0.96947
1133.4	0.96906
1133.6	0.96866
1133.8	0.96825
1134.0	0.96783
1134.2	0.96687
1134.4	0.96591
1134.6	0.96495
1134.8	0.96399
1135.0	0.96304
1135.2	0.96261
1135.4	0.96219
1135.6	0.96176
1135.8	0.96134
1136.0	0.96091
1136.2	0.96045
1136.4	0.95999
1136.6	0.95952
1136.8	0.95906
1137.0	0.95862
1137.2	0.95863
1137.4	0.95865
1137.6	0.95866
1137.8	0.95868
1138.0	0.9587
1138.2	0.95902
1138.4	0.95934
1138.6	0.95966
1138.8	0.95998
1139.0	0.96033
1139.2	0.96126
1139.4	0.96218
1139.6	0.96311
1139.8	0.96404
1140.0	0.96497
1140.2	0.96517
1140.4	0.96537
1140.6	0.96556
1140.8	0.96576
1141.0	0.96597
1141.2	0.96646
1141.4	0.96696
1141.6	0.96745
1141.8	0.96795
1142.0	0.96845
1142.2	0.96929
1142.4	0.97012
1142.6	0.97095
1142.8	0.97179
1143.0	0.97262
1143.2	0.97207
1143.4	0.97153
1143.6	0.97099
1143.8	0.97044
1144.0	0.96991
1144.2	0.96964
1144.4	0.96938
1144.6	0.96911
1144.8	0.96885
1145.0	0.96858
1145.2	0.96835
1145.4	0.96811
1145.6	0.96788
1145.8	0.96765
1146.0	0.96741
1146.2	0.96667
1146.4	0.96594
1146.6	0.96521
1146.8	0.96448
1147.0	0.96375
1147.2	0.96323
1147.4	0.9627
1147.6	0.96217
1147.8	0.96165
1148.0	0.96112
1148.2	0.9606
1148.4	0.96007
1148.6	0.95955
1148.8	0.95903
1149.0	0.9585
1149.2	0.95782
1149.4	0.95714
1149.6	0.95646
1149.8	0.95577
1150.0	0.95511
1150.2	0.95491
1150.4	0.95471
1150.6	0.95451
1150.8	0.95432
1151.0	0.95415
1151.2	0.95466
1151.4	0.95517
1151.6	0.95568
1151.8	0.95619
1152.0	0.9567
1152.2	0.95692
1152.4	0.95713
1152.6	0.95735
1152.8	0.95757
1153.0	0.95779
1153.2	0.9584
1153.4	0.95902
1153.6	0.95963
1153.8	0.96025
1154.0	0.96087
1154.2	0.96175
1154.4	0.96263
1154.6	0.9635
1154.8	0.96439
1155.0	0.96525
1155.2	0.96564
1155.4	0.96603
1155.6	0.96642
1155.8	0.96682
1156.0	0.96721
1156.2	0.96763
1156.4	0.96805
1156.6	0.96847
1156.8	0.96889
1157.0	0.9693
1157.2	0.96917
1157.4	0.96904
1157.6	0.96891
1157.8	0.96877
1158.0	0.96863
1158.2	0.96824
1158.4	0.96784
1158.6	0.96745
1158.8	0.96706
1159.0	0.96666
1159.2	0.96607
1159.4	0.96548
1159.6	0.9649
1159.8	0.96431
1160.0	0.96372
1160.2	0.96307
1160.4	0.96243
1160.6	0.96178
1160.8	0.96113
1161.0	0.96049
1161.2	0.95995
1161.4	0.9594
1161.6	0.95886
1161.8	0.95832
1162.0	0.95778
1162.2	0.95733
1162.4	0.95687
1162.6	0.95641
1162.8	0.95596
1163.0	0.95551
1163.2	0.95543
1163.4	0.95536
1163.6	0.95528
1163.8	0.95521
1164.0	0.95513
1164.2	0.95511
1164.4	0.9551
1164.6	0.95508
1164.8	0.95506
1165.0	0.95506
1165.2	0.95557
1165.4	0.95609
1165.6	0.95661
1165.8	0.95712
1166.0	0.95764
1166.2	0.95824
1166.4	0.95884
1166.6	0.95944
1166.8	0.96004
1167.0	0.96065
1167.2	0.96139
1167.4	0.96214
1167.6	0.96289
1167.8	0.96364
1168.0	0.96439
1168.2	0.96494
1168.4	0.96548
1168.6	0.96603
1168.8	0.96657
1169.0	0.96712
1169.2	0.96772
1169.4	0.96832
1169.6	0.96892
1169.8	0.96951
1170.0	0.97011
1170.2	0.97019
1170.4	0.97027
1170.6	0.97036
1170.8	0.97044
1171.0	0.97052
1171.2	0.97068
1171.4	0.97084
1171.6	0.971
1171.8	0.97115
1172.0	0.9713
1172.2	0.97097
1172.4	0.97064
1172.6	0.9703
1172.8	0.96997
1173.0	0.96963
1173.2	0.96912
1173.4	0.96861
1173.6	0.9681
1173.8	0.96759
1174.0	0.96708
1174.2	0.96662
1174.4	0.96616
1174.6	0.9657
1174.8	0.96524
1175.0	0.96477
1175.2	0.96409
1175.4	0.96342
1175.6	0.96274
1175.8	0.96207
1176.0	0.96141
1176.2	0.96112
1176.4	0.96082
1176.6	0.96053
1176.8	0.96023
1177.0	0.95995
1177.2	0.95999
1177.4	0.96003
1177.6	0.96007
1177.8	0.96011
1178.0	0.96015
1178.2	0.96023
1178.4	0.96031
1178.6	0.96039
1178.8	0.96047
1179.0	0.96057
1179.2	0.96119
1179.4	0.96182
1179.6	0.96244
1179.8	0.96307
1180.0	0.96368
1180.2	0.96401
1180.4	0.96433
1180.6	0.96466
1180.8	0.96499
1181.0	0.96532
1181.2	0.9658
1181.4	0.96628
1181.6	0.96676
1181.8	0.96725
1182.0	0.96774
1182.2	0.9686
1182.4	0.96947
1182.6	0.97034
1182.8	0.97121
1183.0	0.97208
1183.2	0.97253
1183.4	0.97298
1183.6	0.97343
1183.8	0.97389
1184.0	0.97432
1184.2	0.9744
1184.4	0.97449
1184.6	0.97457
1184.8	0.97465
1185.0	0.97472
1185.2	0.97463
1185.4	0.97453
1185.6	0.97444
1185.8	0.97434
1186.0	0.97424
1186.2	0.97396
1186.4	0.97368
1186.6	0.9734
1186.8	0.97312
1187.0	0.97284
1187.2	0.97228
1187.4	0.97172
1187.6	0.97116
1187.8	0.9706
1188.0	0.97004
1188.2	0.96957
1188.4	0.9691
1188.6	0.96863
1188.8	0.96816
1189.0	0.96769
1189.2	0.96713
1189.4	0.96658
1189.6	0.96603
1189.8	0.96548
1190.0	0.96493
1190.2	0.96461
1190.4	0.96429
1190.6	0.96396
1190.8	0.96364
1191.0	0.96332
1191.2	0.96316
1191.4	0.963
1191.6	0.96284
1191.8	0.96268
1192.0	0.96253
1192.2	0.9627
1192.4	0.96288
1192.6	0.96306
1192.8	0.96323
1193.0	0.96341
1193.2	0.9636
1193.4	0.96379
1193.6	0.96398
1193.8	0.96417
1194.0	0.96436
1194.2	0.96452
1194.4	0.96468
1194.6	0.96484
1194.8	0.965
1195.0	0.96518
1195.2	0.96592
1195.4	0.96666
1195.6	0.9674
1195.8	0.96814
1196.0	0.96888
1196.2	0.96945
1196.4	0.97002
1196.6	0.97059
1196.8	0.97116
1197.0	0.97173
1197.2	0.97194
1197.4	0.97215
1197.6	0.97237
1197.8	0.97258
1198.0	0.97279
1198.2	0.97312
1198.4	0.97344
1198.6	0.97376
1198.8	0.97408
1199.0	0.97439
1199.2	0.97414
1199.4	0.97389
1199.6	0.97364
1199.8	0.97339
1200.0	0.97314
1200.2	0.97277
1200.4	0.97239
1200.6	0.97201
1200.8	0.97163
1201.0	0.97125
1201.2	0.97052
1201.4	0.9698
1201.6	0.96907
1201.8	0.96835
1202.0	0.96763
1202.2	0.96706
1202.4	0.96649
1202.6	0.96592
1202.8	0.96535
1203.0	0.96479
1203.2	0.96434
1203.4	0.96389
1203.6	0.96345
1203.8	0.963
1204.0	0.96255
1204.2	0.96212
1204.4	0.96168
1204.6	0.96125
1204.8	0.96082
1205.0	0.96039
1205.2	0.96022
1205.4	0.96005
1205.6	0.95988
1205.8	0.95971
1206.0	0.95955
1206.2	0.95945
1206.4	0.95935
1206.6	0.95926
1206.8	0.95916
1207.0	0.95907
1207.2	0.95919
1207.4	0.95931
1207.6	0.95944
1207.8	0.95956
1208.0	0.95969
1208.2	0.96025
1208.4	0.96082
1208.6	0.96139
1208.8	0.96196
1209.0	0.96253
1209.2	0.96305
1209.4	0.96358
1209.6	0.9641
1209.8	0.96463
1210.0	0.96516
1210.2	0.96573
1210.4	0.9663
1210.6	0.96688
1210.8	0.96745
1211.0	0.96802
1211.2	0.96861
1211.4	0.96919
1211.6	0.96977
1211.8	0.97036
1212.0	0.97094
1212.2	0.97143
1212.4	0.97193
1212.6	0.97243
1212.8	0.97292
1213.0	0.97341
1213.2	0.97351
1213.4	0.9736
1213.6	0.97369
1213.8	0.97379
1214.0	0.97388
1214.2	0.97391
1214.4	0.97394
1214.6	0.97396
1214.8	0.97399
1215.0	0.974
1215.2	0.97369
1215.4	0.97337
1215.6	0.97306
1215.8	0.97275
1216.0	0.97244
1216.2	0.97218
1216.4	0.97192
1216.6	0.97167
1216.8	0.97141
1217.0	0.97115
1217.2	0.97062
1217.4	0.9701
1217.6	0.96957
1217.8	0.96905
1218.0	0.96852
1218.2	0.96805
1218.4	0.96758
1218.6	0.96711
1218.8	0.96664
1219.0	0.96618
1219.2	0.96592
1219.4	0.96566
1219.6	0.9654
1219.8	0.96514
1220.0	0.96488
1220.2	0.96463
1220.4	0.96438
1220.6	0.96412
1220.8	0.96387
1221.0	0.96362
1221.2	0.96358
1221.4	0.96353
1221.6	0.96348
1221.8	0.96344
1222.0	0.96339
1222.2	0.96356
1222.4	0.96372
1222.6	0.96389
1222.8	0.96405
1223.0	0.96424
1223.2	0.96482
1223.4	0.96541
1223.6	0.966
1223.8	0.96659
1224.0	0.96718
1224.2	0.96769
1224.4	0.96819
1224.6	0.9687
1224.8	0.96921
1225.0	0.96971
1225.2	0.9701
1225.4	0.9705
1225.6	0.97089
1225.8	0.97129
1226.0	0.97168
1226.2	0.97209
1226.4	0.9725
1226.6	0.9729
1226.8	0.97331
1227.0	0.97371
1227.2	0.97391
1227.4	0.97412
1227.6	0.97432
1227.8	0.97452
1228.0	0.97472
1228.2	0.9749
1228.4	0.97507
1228.6	0.97525
1228.8	0.97542
1229.0	0.97557
1229.2	0.97534
1229.4	0.9751
1229.6	0.97487
1229.8	0.97463
1230.0	0.97438
1230.2	0.97384
1230.4	0.97331
1230.6	0.97277
1230.8	0.97223
1231.0	0.9717
1231.2	0.9712
1231.4	0.97071
1231.6	0.97021
1231.8	0.96972
1232.0	0.96922
1232.2	0.96877
1232.4	0.96832
1232.6	0.96786
1232.8	0.96741
1233.0	0.96696
1233.2	0.96656
1233.4	0.96617
1233.6	0.96577
1233.8	0.96538
1234.0	0.96498
1234.2	0.96465
1234.4	0.96432
1234.6	0.96398
1234.8	0.96365
1235.0	0.96332
1235.2	0.96292
1235.4	0.96252
1235.6	0.96213
1235.8	0.96173
1236.0	0.96135
1236.2	0.96155
1236.4	0.96175
1236.6	0.96194
1236.8	0.96214
1237.0	0.96235
1237.2	0.96273
1237.4	0.96311
1237.6	0.9635
1237.8	0.96388
1238.0	0.96427
1238.2	0.96485
1238.4	0.96543
1238.6	0.96601
1238.8	0.96659
1239.0	0.96717
1239.2	0.96768
1239.4	0.96819
1239.6	0.9687
1239.8	0.96921
1240.0	0.96972
1240.2	0.97032
1240.4	0.97092
1240.6	0.97152
1240.8	0.97212
1241.0	0.97272
1241.2	0.97317
1241.4	0.97363
1241.6	0.97408
1241.8	0.97454
1242.0	0.97499
1242.2	0.97549
1242.4	0.97598
1242.6	0.97648
1242.8	0.97697
1243.0	0.97746
1243.2	0.97777
1243.4	0.97807
1243.6	0.97838
1243.8	0.97868
1244.0	0.97897
1244.2	0.97886
1244.4	0.97875
1244.6	0.97863
1244.8	0.97852
1245.0	0.9784
1245.2	0.97813
1245.4	0.97786
1245.6	0.97759
1245.8	0.97732
1246.0	0.97704
1246.2	0.97638
1246.4	0.97572
1246.6	0.97506
1246.8	0.97441
1247.0	0.97376
1247.2	0.97324
1247.4	0.97273
1247.6	0.97222
1247.8	0.97171
1248.0	0.97118
1248.2	0.97043
1248.4	0.96969
1248.6	0.96894
1248.8	0.96819
1249.0	0.96745
1249.2	0.96702
1249.4	0.96658
1249.6	0.96615
1249.8	0.96572
1250.0	0.96529
1250.2	0.9649
1250.4	0.96451
1250.6	0.96412
1250.8	0.96374
1251.0	0.96335
1251.2	0.96313
1251.4	0.96291
1251.6	0.96269
1251.8	0.96246
1252.0	0.96225
1252.2	0.96232
1252.4	0.96238
1252.6	0.96245
1252.8	0.96252
1253.0	0.96258
1253.2	0.96261
1253.4	0.96263
1253.6	0.96266
1253.8	0.96268
1254.0	0.96272
1254.2	0.96321
1254.4	0.96369
1254.6	0.96418
1254.8	0.96466
1255.0	0.96515
1255.2	0.96603
1255.4	0.96692
1255.6	0.9678
1255.8	0.96868
1256.0	0.96954
1256.2	0.96991
1256.4	0.97028
1256.6	0.97064
1256.8	0.97101
1257.0	0.97138
1257.2	0.97197
1257.4	0.97256
1257.6	0.97315
1257.8	0.97374
1258.0	0.97432
1258.2	0.97482
1258.4	0.97532
1258.6	0.97582
1258.8	0.97632
1259.0	0.97681
1259.2	0.97684
1259.4	0.97687
1259.6	0.9769
1259.8	0.97693
1260.0	0.97696
1260.2	0.97667
1260.4	0.97637
1260.6	0.97608
1260.8	0.97579
1261.0	0.97549
1261.2	0.97525
1261.4	0.97501
1261.6	0.97477
1261.8	0.97453
1262.0	0.97428
1262.2	0.97387
1262.4	0.97346
1262.6	0.97306
1262.8	0.97265
1263.0	0.97224
1263.2	0.97155
1263.4	0.97086
1263.6	0.97017
1263.8	0.96948
1264.0	0.9688
1264.2	0.96829
1264.4	0.96777
1264.6	0.96725
1264.8	0.96673
1265.0	0.96622
1265.2	0.96587
1265.4	0.96553
1265.6	0.96518
1265.8	0.96483
1266.0	0.96448
1266.2	0.96427
1266.4	0.96405
1266.6	0.96384
1266.8	0.96362
1267.0	0.96341
1267.2	0.96325
1267.4	0.96309
1267.6	0.96293
1267.8	0.96277
1268.0	0.96262
1268.2	0.96266
1268.4	0.96269
1268.6	0.96273
1268.8	0.96276
1269.0	0.9628
1269.2	0.96305
1269.4	0.9633
1269.6	0.96355
1269.8	0.9638
1270.0	0.96406
1270.2	0.96438
1270.4	0.9647
1270.6	0.96503
1270.8	0.96535
1271.0	0.96569
1271.2	0.96634
1271.4	0.96699
1271.6	0.96765
1271.8	0.9683
1272.0	0.96895
1272.2	0.96959
1272.4	0.97024
1272.6	0.97088
1272.8	0.97152
1273.0	0.97216
1273.2	0.97276
1273.4	0.97336
1273.6	0.97396
1273.8	0.97456
1274.0	0.97515
1274.2	0.97548
1274.4	0.97581
1274.6	0.97613
1274.8	0.97646
1275.0	0.97679
1275.2	0.97692
1275.4	0.97705
1275.6	0.97718
1275.8	0.97732
1276.0	0.97745
1276.2	0.9776
1276.4	0.97775
1276.6	0.9779
1276.8	0.97804
1277.0	0.97818
1277.2	0.97794
1277.4	0.9777
1277.6	0.97746
1277.8	0.97722
1278.0	0.97698
1278.2	0.97667
1278.4	0.97635
1278.6	0.97604
1278.8	0.97573
1279.0	0.97541
1279.2	0.97503
1279.4	0.97464
1279.6	0.97425
1279.8	0.97386
1280.0	0.97347
1280.2	0.97299
1280.4	0.97251
1280.6	0.97203
1280.8	0.97155
1281.0	0.97107
1281.2	0.97081
1281.4	0.97055
1281.6	0.97029
1281.8	0.97004
1282.0	0.96978
1282.2	0.96946
1282.4	0.96914
1282.6	0.96882
1282.8	0.9685
1283.0	0.96819
1283.2	0.96802
1283.4	0.96784
1283.6	0.96767
1283.8	0.96749
1284.0	0.96733
1284.2	0.96737
1284.4	0.96741
1284.6	0.96745
1284.8	0.96749
1285.0	0.96754
1285.2	0.96797
1285.4	0.9684
1285.6	0.96883
1285.8	0.96926
1286.0	0.96969
1286.2	0.97025
1286.4	0.97082
1286.6	0.97138
1286.8	0.97195
1287.0	0.97251
1287.2	0.9727
1287.4	0.97289
1287.6	0.97308
1287.8	0.97327
1288.0	0.97347
1288.2	0.97444
1288.4	0.9754
1288.6	0.97637
1288.8	0.97734
1289.0	0.9783
1289.2	0.97855
1289.4	0.97881
1289.6	0.97907
1289.8	0.97932
1290.0	0.97958
1290.2	0.98005
1290.4	0.98052
1290.6	0.981
1290.8	0.98147
1291.0	0.98192
1291.2	0.98174
1291.4	0.98156
1291.6	0.98138
1291.8	0.9812
1292.0	0.98103
1292.2	0.98117
1292.4	0.98132
1292.6	0.98146
1292.8	0.98161
1293.0	0.98174
1293.2	0.98149
1293.4	0.98125
1293.6	0.981
1293.8	0.98076
1294.0	0.98052
1294.2	0.98041
1294.4	0.9803
1294.6	0.98019
1294.8	0.98008
1295.0	0.97996
1295.2	0.97942
1295.4	0.97887
1295.6	0.97833
1295.8	0.97779
1296.0	0.97725
1296.2	0.97663
1296.4	0.976
1296.6	0.97538
1296.8	0.97476
1297.0	0.97414
1297.2	0.97354
1297.4	0.97294
1297.6	0.97234
1297.8	0.97174
1298.0	0.97116
1298.2	0.97095
1298.4	0.97074
1298.6	0.97052
1298.8	0.97031
1299.0	0.9701
1299.2	0.96981
1299.4	0.96952
1299.6	0.96923
1299.8	0.96894
1300.0	0.96866
1300.2	0.96858
1300.4	0.9685
1300.6	0.96843
1300.8	0.96835
1301.0	0.96828
1301.2	0.96835
1301.4	0.96841
1301.6	0.96848
1301.8	0.96855
1302.0	0.96862
1302.2	0.96903
1302.4	0.96944
1302.6	0.96984
1302.8	0.97025
1303.0	0.97066
1303.2	0.97102
1303.4	0.97139
1303.6	0.97175
1303.8	0.97212
1304.0	0.97249
1304.2	0.97301
1304.4	0.97352
1304.6	0.97404
1304.8	0.97456
1305.0	0.97508
1305.2	0.97548
1305.4	0.97588
1305.6	0.97628
1305.8	0.97668
1306.0	0.97708
1306.2	0.97741
1306.4	0.97774
1306.6	0.97808
1306.8	0.97841
1307.0	0.97875
1307.2	0.9791
1307.4	0.97946
1307.6	0.97981
1307.8	0.98017
1308.0	0.98052
1308.2	0.9807
1308.4	0.98087
1308.6	0.98105
1308.8	0.98122
1309.0	0.98139
1309.2	0.98135
1309.4	0.98131
1309.6	0.98127
1309.8	0.98123
1310.0	0.98119
1310.2	0.98098
1310.4	0.98077
1310.6	0.98055
1310.8	0.98034
1311.0	0.98012
1311.2	0.97959
1311.4	0.97906
1311.6	0.97853
1311.8	0.978
1312.0	0.97747
1312.2	0.97699
1312.4	0.97651
1312.6	0.97603
1312.8	0.97555
1313.0	0.97507
1313.2	0.97449
1313.4	0.97391
1313.6	0.97333
1313.8	0.97275
1314.0	0.97218
1314.2	0.97184
1314.4	0.97151
1314.6	0.97117
1314.8	0.97084
1315.0	0.9705
1315.2	0.97019
1315.4	0.96987
1315.6	0.96955
1315.8	0.96923
1316.0	0.96891
1316.2	0.96858
1316.4	0.96825
1316.6	0.96792
1316.8	0.9676
1317.0	0.96728
1317.2	0.9672
1317.4	0.96713
1317.6	0.96705
1317.8	0.96698
1318.0	0.96691
1318.2	0.96688
1318.4	0.96685
1318.6	0.96683
1318.8	0.9668
1319.0	0.9668
1319.2	0.96737
1319.4	0.96795
1319.6	0.96853
1319.8	0.96911
1320.0	0.96967
1320.2	0.96986
1320.4	0.97005
1320.6	0.97023
1320.8	0.97042
1321.0	0.97061
1321.2	0.97107
1321.4	0.97153
1321.6	0.972
1321.8	0.97246
1322.0	0.97292
1322.2	0.97321
1322.4	0.9735
1322.6	0.97379
1322.8	0.97408
1323.0	0.97437
1323.2	0.9747
1323.4	0.97503
1323.6	0.97535
1323.8	0.97568
1324.0	0.97601
1324.2	0.97627
1324.4	0.97653
1324.6	0.9768
1324.8	0.97706
1325.0	0.97732
1325.2	0.97765
1325.4	0.97797
1325.6	0.97829
1325.8	0.97861
1326.0	0.97892
1326.2	0.97889
1326.4	0.97886
1326.6	0.97883
1326.8	0.9788
1327.0	0.97877
1327.2	0.97864
1327.4	0.9785
1327.6	0.97837
1327.8	0.97824
1328.0	0.9781
1328.2	0.97779
1328.4	0.97748
1328.6	0.97717
1328.8	0.97686
1329.0	0.97656
1329.2	0.97623
1329.4	0.9759
1329.6	0.97558
1329.8	0.97525
1330.0	0.97492
1330.2	0.97445
1330.4	0.97399
1330.6	0.97352
1330.8	0.97305
1331.0	0.97259
1331.2	0.97236
1331.4	0.97212
1331.6	0.97189
1331.8	0.97166
1332.0	0.97142
1332.2	0.97073
1332.4	0.97004
1332.6	0.96935
1332.8	0.96866
1333.0	0.96798
1333.2	0.96769
1333.4	0.9674
1333.6	0.96711
1333.8	0.96681
1334.0	0.96653
1334.2	0.9665
1334.4	0.96647
1334.6	0.96644
1334.8	0.96641
1335.0	0.96638
1335.2	0.96653
1335.4	0.96668
1335.6	0.96683
1335.8	0.96698
1336.0	0.96713
1336.2	0.96738
1336.4	0.96763
1336.6	0.96788
1336.8	0.96813
1337.0	0.96838
1337.2	0.96877
1337.4	0.96915
1337.6	0.96954
1337.8	0.96993
1338.0	0.97032
1338.2	0.97091
1338.4	0.97151
1338.6	0.9721
1338.8	0.9727
1339.0	0.97329
1339.2	0.97358
1339.4	0.97388
1339.6	0.97417
1339.8	0.97446
1340.0	0.97476
1340.2	0.97549
1340.4	0.97623
1340.6	0.97696
1340.8	0.9777
1341.0	0.97842
1341.2	0.97872
1341.4	0.97903
1341.6	0.97933
1341.8	0.97964
1342.0	0.97995
1342.2	0.98039
1342.4	0.98082
1342.6	0.98126
1342.8	0.9817
1343.0	0.98213
1343.2	0.98188
1343.4	0.98163
1343.6	0.98138
1343.8	0.98114
1344.0	0.98089
1344.2	0.98095
1344.4	0.98101
1344.6	0.98106
1344.8	0.98112
1345.0	0.98118
1345.2	0.98112
1345.4	0.98105
1345.6	0.98099
1345.8	0.98093
1346.0	0.98086
1346.2	0.98003
1346.4	0.97919
1346.6	0.97836
1346.8	0.97753
1347.0	0.97671
1347.2	0.97667
1347.4	0.97664
1347.6	0.9766
1347.8	0.97656
1348.0	0.97652
1348.2	0.97604
1348.4	0.97556
1348.6	0.97508
1348.8	0.97461
1349.0	0.97412
1349.2	0.97345
1349.4	0.97277
1349.6	0.9721
1349.8	0.97142
1350.0	0.97074
1350.2	0.96974
1350.4	0.96873
1350.6	0.96773
1350.8	0.96673
1351.0	0.96581
1351.2	0.96771
1351.4	0.96961
1351.6	0.97152
1351.8	0.97343
1352.0	0.97524
1352.2	0.97351
1352.4	0.97179
1352.6	0.97008
1352.8	0.96836
1353.0	0.96669
1353.2	0.96594
1353.4	0.96518
1353.6	0.96443
1353.8	0.96367
1354.0	0.96277
1354.2	0.95841
1354.4	0.95408
1354.6	0.94976
1354.8	0.94546
1355.0	0.94185
1355.2	0.95258
1355.4	0.96344
1355.6	0.97442
1355.8	0.98552
1356.0	0.99585
1356.2	0.98908
1356.4	0.98236
1356.6	0.97569
1356.8	0.96906
1357.0	0.96256
1357.2	0.96424
1357.4	0.96591
1357.6	0.96759
1357.8	0.96927
1358.0	0.97093
1358.2	0.97163
1358.4	0.97233
1358.6	0.97303
1358.8	0.97373
1359.0	0.97438
1359.2	0.97301
1359.4	0.97163
1359.6	0.97026
1359.8	0.96889
1360.0	0.96762
1360.2	0.97037
1360.4	0.97314
1360.6	0.97591
1360.8	0.97868
1361.0	0.98133
1361.2	0.98024
1361.4	0.97916
1361.6	0.97807
1361.8	0.97699
1362.0	0.97609
1362.2	0.98021
1362.4	0.98436
1362.6	0.98852
1362.8	0.9927
1363.0	0.99646
1363.2	0.99098
1363.4	0.98553
1363.6	0.98012
1363.8	0.97473
1364.0	0.96945
1364.2	0.9723
1364.4	0.97516
1364.6	0.97802
1364.8	0.9809
1365.0	0.98372
1365.2	0.98076
1365.4	0.97781
1365.6	0.97487
1365.8	0.97194
1366.0	0.96902
1366.2	0.96619
1366.4	0.96337
1366.6	0.96056
1366.8	0.95776
1367.0	0.95515
1367.2	0.95955
1367.4	0.96398
1367.6	0.96842
1367.8	0.97289
1368.0	0.97718
1368.2	0.97628
1368.4	0.97539
1368.6	0.97449
1368.8	0.97359
1369.0	0.97267
1369.2	0.9711
1369.4	0.96953
1369.6	0.96797
1369.8	0.9664
1370.0	0.96487
1370.2	0.96784
1370.4	0.97081
1370.6	0.9738
1370.8	0.9768
1371.0	0.97976
1371.2	0.97827
1371.4	0.97679
1371.6	0.97531
1371.8	0.97383
1372.0	0.97237
1372.2	0.97225
1372.4	0.97213
1372.6	0.97201
1372.8	0.97188
1373.0	0.97176
1373.2	0.97165
1373.4	0.97153
1373.6	0.97142
1373.8	0.9713
1374.0	0.97121
1374.2	0.97199
1374.4	0.97276
1374.6	0.97354
1374.8	0.97432
1375.0	0.97507
1375.2	0.97473
1375.4	0.97439
1375.6	0.97405
1375.8	0.9737
1376.0	0.97339
1376.2	0.97392
1376.4	0.97444
1376.6	0.97497
1376.8	0.9755
1377.0	0.97614
1377.2	0.97948
1377.4	0.98283
1377.6	0.98619
1377.8	0.98956
1378.0	0.99261
1378.2	0.98843
1378.4	0.98427
1378.6	0.98013
1378.8	0.97601
1379.0	0.97194
1379.2	0.97595
1379.4	0.97998
1379.6	0.98402
1379.8	0.98808
1380.0	0.99207
1380.2	0.99052
1380.4	0.98896
1380.6	0.98741
1380.8	0.98586
1381.0	0.98443
1381.2	0.99061
1381.4	0.99682
1381.6	1.00308
1381.8	1.00937
1382.0	1.01556
1382.2	1.01247
1382.4	1.00939
1382.6	1.00632
1382.8	1.00325
1383.0	1.00015
1383.2	0.9936
1383.4	0.9871
1383.6	0.98064
1383.8	0.97422
1384.0	0.96804
1384.2	0.9716
1384.4	0.97517
1384.6	0.97876
1384.8	0.98235
1385.0	0.98587
1385.2	0.98353
1385.4	0.98119
1385.6	0.97885
1385.8	0.97652
1386.0	0.97426
1386.2	0.97538
1386.4	0.97649
1386.6	0.97761
1386.8	0.97873
1387.0	0.97978
1387.2	0.97788
1387.4	0.97597
1387.6	0.97407
1387.8	0.97218
1388.0	0.97035
1388.2	0.97096
1388.4	0.97157
1388.6	0.97219
1388.8	0.9728
1389.0	0.97337
1389.2	0.9724
1389.4	0.97143
1389.6	0.97046
1389.8	0.96949
1390.0	0.96851
1390.2	0.96707
1390.4	0.96564
1390.6	0.9642
1390.8	0.96277
1391.0	0.96141
1391.2	0.96263
1391.4	0.96386
1391.6	0.96508
1391.8	0.96631
1392.0	0.96752
1392.2	0.96753
1392.4	0.96754
1392.6	0.96755
1392.8	0.96756
1393.0	0.96758
1393.2	0.96878
1393.4	0.96998
1393.6	0.97119
1393.8	0.97239
1394.0	0.97352
1394.2	0.97296
1394.4	0.9724
1394.6	0.97185
1394.8	0.97129
1395.0	0.97078
1395.2	0.97125
1395.4	0.97172
1395.6	0.97218
1395.8	0.97265
1396.0	0.97313
1396.2	0.97363
1396.4	0.97413
1396.6	0.97464
1396.8	0.97515
1397.0	0.97565
1397.2	0.976
1397.4	0.97636
1397.6	0.97672
1397.8	0.97708
1398.0	0.97745
1398.2	0.97822
1398.4	0.979
1398.6	0.97977
1398.8	0.98054
1399.0	0.98127
1399.2	0.97997
1399.4	0.97868
1399.6	0.97739
1399.8	0.97611
1400.0	0.97485
1400.2	0.97569
1400.4	0.97653
1400.6	0.97737
1400.8	0.97821
1401.0	0.97903
1401.2	0.97947
1401.4	0.97991
1401.6	0.98034
1401.8	0.98078
1402.0	0.98119
1402.2	0.98107
1402.4	0.98095
1402.6	0.98083
1402.8	0.98071
1403.0	0.98065
1403.2	0.98378
1403.4	0.98693
1403.6	0.99008
1403.8	0.99324
1404.0	0.99605
1404.2	0.99201
1404.4	0.98799
1404.6	0.98398
1404.8	0.97999
1405.0	0.97617
1405.2	0.97596
1405.4	0.97576
1405.6	0.97555
1405.8	0.97535
1406.0	0.97514
1406.2	0.97454
1406.4	0.97394
1406.6	0.97334
1406.8	0.97274
1407.0	0.97216
1407.2	0.97279
1407.4	0.97341
1407.6	0.97404
1407.8	0.97467
1408.0	0.97519
1408.2	0.97349
1408.4	0.97179
1408.6	0.9701
1408.8	0.96841
1409.0	0.9668
1409.2	0.96728
1409.4	0.96777
1409.6	0.96826
1409.8	0.96874
1410.0	0.96922
1410.2	0.96936
1410.4	0.9695
1410.6	0.96964
1410.8	0.96978
1411.0	0.9699
1411.2	0.96971
1411.4	0.96952
1411.6	0.96933
1411.8	0.96913
1412.0	0.96898
1412.2	0.97019
1412.4	0.97141
1412.6	0.97263
1412.8	0.97385
1413.0	0.9749
1413.2	0.9721
1413.4	0.96932
1413.6	0.96654
1413.8	0.96378
1414.0	0.96118
1414.2	0.96385
1414.4	0.96652
1414.6	0.96921
1414.8	0.9719
1415.0	0.97448
1415.2	0.97494
1415.4	0.97539
1415.6	0.97584
1415.8	0.9763
1416.0	0.97675
1416.2	0.977
1416.4	0.97726
1416.6	0.97752
1416.8	0.97778
1417.0	0.97804
1417.2	0.97862
1417.4	0.97921
1417.6	0.97979
1417.8	0.98038
1418.0	0.98095
1418.2	0.98105
1418.4	0.98116
1418.6	0.98127
1418.8	0.98138
1419.0	0.98148
1419.2	0.98142
1419.4	0.98136
1419.6	0.9813
1419.8	0.98123
1420.0	0.98117
1420.2	0.98112
1420.4	0.98106
1420.6	0.98101
1420.8	0.98095
1421.0	0.9809
1421.2	0.98111
1421.4	0.98132
1421.6	0.98153
1421.8	0.98174
1422.0	0.98196
1422.2	0.98239
1422.4	0.98282
1422.6	0.98326
1422.8	0.98369
1423.0	0.9841
1423.2	0.98317
1423.4	0.98224
1423.6	0.98132
1423.8	0.98039
1424.0	0.97949
1424.2	0.97916
1424.4	0.97883
1424.6	0.9785
1424.8	0.97817
1425.0	0.97783
1425.2	0.97739
1425.4	0.97695
1425.6	0.97652
1425.8	0.97608
1426.0	0.97564
1426.2	0.97513
1426.4	0.97463
1426.6	0.97413
1426.8	0.97363
1427.0	0.97313
1427.2	0.97281
1427.4	0.9725
1427.6	0.97219
1427.8	0.97187
1428.0	0.97156
1428.2	0.97121
1428.4	0.97086
1428.6	0.97052
1428.8	0.97017
1429.0	0.96983
1429.2	0.97002
1429.4	0.97021
1429.6	0.97039
1429.8	0.97058
1430.0	0.97076
1430.2	0.97078
1430.4	0.97079
1430.6	0.97081
1430.8	0.97082
1431.0	0.97086
1431.2	0.97136
1431.4	0.97185
1431.6	0.97235
1431.8	0.97285
1432.0	0.97333
1432.2	0.97297
1432.4	0.97261
1432.6	0.97224
1432.8	0.97188
1433.0	0.97157
1433.2	0.97245
1433.4	0.97333
1433.6	0.97421
1433.8	0.9751
1434.0	0.97597
1434.2	0.976
1434.4	0.97602
1434.6	0.97605
1434.8	0.97608
1435.0	0.97612
1435.2	0.97646
1435.4	0.97679
1435.6	0.97713
1435.8	0.97746
1436.0	0.97778
1436.2	0.9771
1436.4	0.97642
1436.6	0.97574
1436.8	0.97506
1437.0	0.97447
1437.2	0.97615
1437.4	0.97783
1437.6	0.97952
1437.8	0.98121
1438.0	0.98289
1438.2	0.98326
1438.4	0.98362
1438.6	0.98398
1438.8	0.98435
1439.0	0.98471
1439.2	0.98485
1439.4	0.985
1439.6	0.98515
1439.8	0.98529
1440.0	0.98544
1440.2	0.98544
1440.4	0.98543
1440.6	0.98543
1440.8	0.98542
1441.0	0.98541
1441.2	0.9852
1441.4	0.985
1441.6	0.9848
1441.8	0.98459
1442.0	0.98439
1442.2	0.98454
1442.4	0.98468
1442.6	0.98482
1442.8	0.98497
1443.0	0.9851
1443.2	0.98482
1443.4	0.98453
1443.6	0.98425
1443.8	0.98397
1444.0	0.98368
1444.2	0.9831
1444.4	0.98252
1444.6	0.98193
1444.8	0.98135
1445.0	0.98078
1445.2	0.98042
1445.4	0.98006
1445.6	0.97969
1445.8	0.97933
1446.0	0.97897
1446.2	0.9785
1446.4	0.97802
1446.6	0.97754
1446.8	0.97707
1447.0	0.9766
1447.2	0.97626
1447.4	0.97593
1447.6	0.97559
1447.8	0.97525
1448.0	0.97492
1448.2	0.97453
1448.4	0.97413
1448.6	0.97374
1448.8	0.97335
1449.0	0.97296
1449.2	0.97247
1449.4	0.97199
1449.6	0.97151
1449.8	0.97102
1450.0	0.97055
1450.2	0.97061
1450.4	0.97067
1450.6	0.97072
1450.8	0.97078
1451.0	0.97084
1451.2	0.97103
1451.4	0.97123
1451.6	0.97142
1451.8	0.97161
1452.0	0.9718
1452.2	0.97185
1452.4	0.97189
1452.6	0.97193
1452.8	0.97198
1453.0	0.97203
1453.2	0.97222
1453.4	0.97241
1453.6	0.97261
1453.8	0.9728
1454.0	0.97298
1454.2	0.97285
1454.4	0.97272
1454.6	0.97259
1454.8	0.97247
1455.0	0.97234
1455.2	0.97286
1455.4	0.97337
1455.6	0.97388
1455.8	0.9744
1456.0	0.97491
1456.2	0.97528
1456.4	0.97565
1456.6	0.97603
1456.8	0.9764
1457.0	0.97677
1457.2	0.97697
1457.4	0.97717
1457.6	0.97736
1457.8	0.97756
1458.0	0.97777
1458.2	0.97821
1458.4	0.97865
1458.6	0.9791
1458.8	0.97954
1459.0	0.97997
1459.2	0.98003
1459.4	0.98008
1459.6	0.98014
1459.8	0.9802
1460.0	0.98027
1460.2	0.98048
1460.4	0.9807
1460.6	0.98091
1460.8	0.98113
1461.0	0.98133
1461.2	0.98124
1461.4	0.98115
1461.6	0.98107
1461.8	0.98098
1462.0	0.98089
1462.2	0.98081
1462.4	0.98072
1462.6	0.98064
1462.8	0.98055
1463.0	0.98047
1463.2	0.98039
1463.4	0.98031
1463.6	0.98024
1463.8	0.98016
1464.0	0.98007
1464.2	0.97938
1464.4	0.97868
1464.6	0.97799
1464.8	0.9773
1465.0	0.97662
1465.2	0.97651
1465.4	0.9764
1465.6	0.97629
1465.8	0.97618
1466.0	0.97607
1466.2	0.97586
1466.4	0.97565
1466.6	0.97544
1466.8	0.97523
1467.0	0.97501
1467.2	0.97427
1467.4	0.97353
1467.6	0.9728
1467.8	0.97206
1468.0	0.97133
1468.2	0.97106
1468.4	0.97079
1468.6	0.97052
1468.8	0.97025
1469.0	0.96998
1469.2	0.9698
1469.4	0.96962
1469.6	0.96943
1469.8	0.96925
1470.0	0.96907
1470.2	0.9688
1470.4	0.96854
1470.6	0.96827
1470.8	0.96801
1471.0	0.96773
1471.2	0.9671
1471.4	0.96648
1471.6	0.96585
1471.8	0.96522
1472.0	0.96464
1472.2	0.96533
1472.4	0.96601
1472.6	0.9667
1472.8	0.96739
1473.0	0.96803
1473.2	0.96781
1473.4	0.9676
1473.6	0.96738
1473.8	0.96716
1474.0	0.96695
1474.2	0.96748
1474.4	0.96801
1474.6	0.96853
1474.8	0.96906
1475.0	0.96958
1475.2	0.96969
1475.4	0.9698
1475.6	0.9699
1475.8	0.97001
1476.0	0.97013
1476.2	0.97061
1476.4	0.97109
1476.6	0.97156
1476.8	0.97204
1477.0	0.97251
1477.2	0.97282
1477.4	0.97313
1477.6	0.97343
1477.8	0.97374
1478.0	0.97403
1478.2	0.97405
1478.4	0.97406
1478.6	0.97408
1478.8	0.97409
1479.0	0.97411
1479.2	0.9746
1479.4	0.9751
1479.6	0.97559
1479.8	0.97608
1480.0	0.97658
1480.2	0.97704
1480.4	0.97751
1480.6	0.97797
1480.8	0.97844
1481.0	0.97889
1481.2	0.97889
1481.4	0.9789
1481.6	0.97891
1481.8	0.97892
1482.0	0.97893
1482.2	0.9792
1482.4	0.97946
1482.6	0.97973
1482.8	0.98
1483.0	0.98025
1483.2	0.98006
1483.4	0.97986
1483.6	0.97967
1483.8	0.97948
1484.0	0.97929
1484.2	0.97947
1484.4	0.97966
1484.6	0.97984
1484.8	0.98002
1485.0	0.98019
1485.2	0.9799
1485.4	0.97961
1485.6	0.97932
1485.8	0.97903
1486.0	0.97873
1486.2	0.97834
1486.4	0.97796
1486.6	0.97757
1486.8	0.97718
1487.0	0.97679
1487.2	0.97619
1487.4	0.97559
1487.6	0.97499
1487.8	0.9744
1488.0	0.97381
1488.2	0.97353
1488.4	0.97324
1488.6	0.97296
1488.8	0.97268
1489.0	0.97239
1489.2	0.97193
1489.4	0.97147
1489.6	0.97101
1489.8	0.97055
1490.0	0.97009
1490.2	0.96971
1490.4	0.96933
1490.6	0.96896
1490.8	0.96858
1491.0	0.96821
1491.2	0.96803
1491.4	0.96785
1491.6	0.96767
1491.8	0.96749
1492.0	0.9673
1492.2	0.96688
1492.4	0.96646
1492.6	0.96604
1492.8	0.96562
1493.0	0.96521
1493.2	0.96529
1493.4	0.96537
1493.6	0.96545
1493.8	0.96553
1494.0	0.9656
1494.2	0.96556
1494.4	0.96552
1494.6	0.96549
1494.8	0.96545
1495.0	0.96541
1495.2	0.96552
1495.4	0.96562
1495.6	0.96573
1495.8	0.96584
1496.0	0.96594
1496.2	0.96611
1496.4	0.96627
1496.6	0.96644
1496.8	0.9666
1497.0	0.96678
1497.2	0.96731
1497.4	0.96784
1497.6	0.96837
1497.8	0.9689
1498.0	0.96943
1498.2	0.96982
1498.4	0.97021
1498.6	0.9706
1498.8	0.97099
1499.0	0.97138
1499.2	0.97176
1499.4	0.97215
1499.6	0.97253
1499.8	0.97291
1500.0	0.97329
1500.2	0.97362
1500.4	0.97394
1500.6	0.97426
1500.8	0.97458
1501.0	0.9749
1501.2	0.97546
1501.4	0.97603
1501.6	0.97659
1501.8	0.97715
1502.0	0.97771
1502.2	0.97812
1502.4	0.97853
1502.6	0.97895
1502.8	0.97936
1503.0	0.97974
1503.2	0.97959
1503.4	0.97943
1503.6	0.97928
1503.8	0.97912
1504.0	0.97898
1504.2	0.97906
1504.4	0.97915
1504.6	0.97923
1504.8	0.97932
1505.0	0.9794
1505.2	0.97945
1505.4	0.9795
1505.6	0.97955
1505.8	0.9796
1506.0	0.97964
1506.2	0.97957
1506.4	0.9795
1506.6	0.97943
1506.8	0.97935
1507.0	0.97927
1507.2	0.97881
1507.4	0.97835
1507.6	0.9779
1507.8	0.97744
1508.0	0.97699
1508.2	0.97692
1508.4	0.97684
1508.6	0.97676
1508.8	0.97669
1509.0	0.97661
1509.2	0.97625
1509.4	0.97589
1509.6	0.97553
1509.8	0.97517
1510.0	0.9748
1510.2	0.97419
1510.4	0.97358
1510.6	0.97297
1510.8	0.97237
1511.0	0.97176
1511.2	0.97124
1511.4	0.97071
1511.6	0.97018
1511.8	0.96966
1512.0	0.96914
1512.2	0.96914
1512.4	0.96913
1512.6	0.96913
1512.8	0.96913
1513.0	0.96913
1513.2	0.96878
1513.4	0.96843
1513.6	0.96809
1513.8	0.96774
1514.0	0.96739
1514.2	0.96687
1514.4	0.96636
1514.6	0.96584
1514.8	0.96533
1515.0	0.96483
1515.2	0.96486
1515.4	0.9649
1515.6	0.96493
1515.8	0.96496
1516.0	0.965
1516.2	0.96531
1516.4	0.96561
1516.6	0.96591
1516.8	0.96622
1517.0	0.9665
1517.2	0.96633
1517.4	0.96616
1517.6	0.96599
1517.8	0.96582
1518.0	0.96567
1518.2	0.96589
1518.4	0.96611
1518.6	0.96633
1518.8	0.96655
1519.0	0.96677
1519.2	0.96711
1519.4	0.96745
1519.6	0.96778
1519.8	0.96812
1520.0	0.96846
1520.2	0.96893
1520.4	0.96941
1520.6	0.96988
1520.8	0.97036
1521.0	0.97083
1521.2	0.9712
1521.4	0.97157
1521.6	0.97195
1521.8	0.97232
1522.0	0.97269
1522.2	0.9732
1522.4	0.9737
1522.6	0.97421
1522.8	0.97472
1523.0	0.97522
1523.2	0.97541
1523.4	0.97561
1523.6	0.9758
1523.8	0.976
1524.0	0.9762
1524.2	0.97657
1524.4	0.97695
1524.6	0.97732
1524.8	0.9777
1525.0	0.97807
1525.2	0.97831
1525.4	0.97855
1525.6	0.97879
1525.8	0.97903
1526.0	0.97924
1526.2	0.97892
1526.4	0.97859
1526.6	0.97826
1526.8	0.97793
1527.0	0.97762
1527.2	0.97787
1527.4	0.97811
1527.6	0.97836
1527.8	0.97861
1528.0	0.97885
1528.2	0.97854
1528.4	0.97824
1528.6	0.97794
1528.8	0.97763
1529.0	0.97733
1529.2	0.97711
1529.4	0.97689
1529.6	0.97667
1529.8	0.97645
1530.0	0.97622
1530.2	0.97574
1530.4	0.97525
1530.6	0.97476
1530.8	0.97428
1531.0	0.9738
1531.2	0.97368
1531.4	0.97356
1531.6	0.97344
1531.8	0.97332
1532.0	0.97319
1532.2	0.97228
1532.4	0.97138
1532.6	0.97047
1532.8	0.96957
1533.0	0.96871
1533.2	0.96876
1533.4	0.96882
1533.6	0.96887
1533.8	0.96892
1534.0	0.96894
1534.2	0.9683
1534.4	0.96766
1534.6	0.96702
1534.8	0.96639
1535.0	0.96575
1535.2	0.96534
1535.4	0.96493
1535.6	0.96451
1535.8	0.9641
1536.0	0.96369
1536.2	0.9636
1536.4	0.9635
1536.6	0.96341
1536.8	0.96331
1537.0	0.9632
1537.2	0.96286
1537.4	0.96251
1537.6	0.96217
1537.8	0.96182
1538.0	0.96149
1538.2	0.96157
1538.4	0.96164
1538.6	0.96172
1538.8	0.96179
1539.0	0.96186
1539.2	0.9617
1539.4	0.96155
1539.6	0.96139
1539.8	0.96123
1540.0	0.96108
1540.2	0.96112
1540.4	0.96115
1540.6	0.96119
1540.8	0.96122
1541.0	0.96126
1541.2	0.96188
1541.4	0.9625
1541.6	0.96312
1541.8	0.96374
1542.0	0.96434
1542.2	0.96434
1542.4	0.96434
1542.6	0.96434
1542.8	0.96434
1543.0	0.96436
1543.2	0.96489
1543.4	0.96543
1543.6	0.96597
1543.8	0.96651
1544.0	0.96705
1544.2	0.96747
1544.4	0.96788
1544.6	0.9683
1544.8	0.96871
1545.0	0.96913
1545.2	0.96924
1545.4	0.96935
1545.6	0.96945
1545.8	0.96956
1546.0	0.96969
1546.2	0.97032
1546.4	0.97096
1546.6	0.97159
1546.8	0.97223
1547.0	0.97284
1547.2	0.97269
1547.4	0.97254
1547.6	0.97238
1547.8	0.97223
1548.0	0.97209
1548.2	0.97268
1548.4	0.97326
1548.6	0.97384
1548.8	0.97443
1549.0	0.97501
1549.2	0.97492
1549.4	0.97483
1549.6	0.97474
1549.8	0.97465
1550.0	0.97457
1550.2	0.97453
1550.4	0.9745
1550.6	0.97447
1550.8	0.97443
1551.0	0.97438
1551.2	0.97402
1551.4	0.97366
1551.6	0.97329
1551.8	0.97293
1552.0	0.97257
1552.2	0.97235
1552.4	0.97214
1552.6	0.97192
1552.8	0.97171
1553.0	0.9715
1553.2	0.97154
1553.4	0.97159
1553.6	0.97164
1553.8	0.97169
1554.0	0.9717
1554.2	0.97101
1554.4	0.97031
1554.6	0.96961
1554.8	0.96892
1555.0	0.96824
1555.2	0.96807
1555.4	0.96791
1555.6	0.96774
1555.8	0.96757
1556.0	0.9674
1556.2	0.96702
1556.4	0.96665
1556.6	0.96627
1556.8	0.9659
1557.0	0.96553
1557.2	0.9652
1557.4	0.96487
1557.6	0.96455
1557.8	0.96422
1558.0	0.96389
1558.2	0.9631
1558.4	0.96232
1558.6	0.96153
1558.8	0.96075
1559.0	0.96003
1559.2	0.96065
1559.4	0.96127
1559.6	0.9619
1559.8	0.96252
1560.0	0.96308
1560.2	0.96236
1560.4	0.96164
1560.6	0.96092
1560.8	0.9602
1561.0	0.95955
1561.2	0.9605
1561.4	0.96146
1561.6	0.96242
1561.8	0.96338
1562.0	0.96428
1562.2	0.9634
1562.4	0.96251
1562.6	0.96163
1562.8	0.96075
1563.0	0.95991
1563.2	0.96076
1563.4	0.96161
1563.6	0.96245
1563.8	0.9633
1564.0	0.96413
1564.2	0.96396
1564.4	0.96379
1564.6	0.96362
1564.8	0.96345
1565.0	0.9633
1565.2	0.96407
1565.4	0.96484
1565.6	0.96562
1565.8	0.9664
1566.0	0.96717
1566.2	0.96742
1566.4	0.96768
1566.6	0.96794
1566.8	0.9682
1567.0	0.96846
1567.2	0.96902
1567.4	0.96958
1567.6	0.97014
1567.8	0.9707
1568.0	0.97121
1568.2	0.97084
1568.4	0.97046
1568.6	0.97009
1568.8	0.96971
1569.0	0.96939
1569.2	0.97032
1569.4	0.97126
1569.6	0.97219
1569.8	0.97313
1570.0	0.97403
1570.2	0.97377
1570.4	0.97351
1570.6	0.97325
1570.8	0.97299
1571.0	0.97277
1571.2	0.97339
1571.4	0.97402
1571.6	0.97464
1571.8	0.97526
1572.0	0.97585
1572.2	0.97557
1572.4	0.97528
1572.6	0.97499
1572.8	0.97471
1573.0	0.97444
1573.2	0.97494
1573.4	0.97543
1573.6	0.97592
1573.8	0.97641
1574.0	0.97687
1574.2	0.97617
1574.4	0.97548
1574.6	0.97478
1574.8	0.97409
1575.0	0.97341
1575.2	0.97331
1575.4	0.97321
1575.6	0.97312
1575.8	0.97302
1576.0	0.97289
1576.2	0.97184
1576.4	0.97079
1576.6	0.96974
1576.8	0.96869
1577.0	0.96769
1577.2	0.96792
1577.4	0.96815
1577.6	0.96839
1577.8	0.96862
1578.0	0.96881
1578.2	0.96761
1578.4	0.96641
1578.6	0.96521
1578.8	0.96401
1579.0	0.96286
1579.2	0.96301
1579.4	0.96316
1579.6	0.96331
1579.8	0.96345
1580.0	0.96358
1580.2	0.96301
1580.4	0.96243
1580.6	0.96186
1580.8	0.96129
1581.0	0.96073
1581.2	0.96069
1581.4	0.96066
1581.6	0.96062
1581.8	0.96058
1582.0	0.96055
1582.2	0.96056
1582.4	0.96058
1582.6	0.9606
1582.8	0.96062
1583.0	0.96063
1583.2	0.9604
1583.4	0.96017
1583.6	0.95994
1583.8	0.9597
1584.0	0.9595
1584.2	0.95995
1584.4	0.9604
1584.6	0.96086
1584.8	0.96131
1585.0	0.96174
1585.2	0.96134
1585.4	0.96095
1585.6	0.96056
1585.8	0.96016
1586.0	0.95983
1586.2	0.96074
1586.4	0.96165
1586.6	0.96256
1586.8	0.96347
1587.0	0.96434
1587.2	0.9641
1587.4	0.96387
1587.6	0.96363
1587.8	0.9634
1588.0	0.96323
1588.2	0.96465
1588.4	0.96606
1588.6	0.96748
1588.8	0.96889
1589.0	0.97031
1589.2	0.97024
1589.4	0.97018
1589.6	0.97011
1589.8	0.97005
1590.0	0.96999
1590.2	0.97052
1590.4	0.97105
1590.6	0.97159
1590.8	0.97212
1591.0	0.97265
1591.2	0.97314
1591.4	0.97363
1591.6	0.97412
1591.8	0.97462
1592.0	0.9751
1592.2	0.97494
1592.4	0.97478
1592.6	0.97462
1592.8	0.97446
1593.0	0.97431
1593.2	0.97496
1593.4	0.97561
1593.6	0.97625
1593.8	0.9769
1594.0	0.97753
1594.2	0.9772
1594.4	0.97687
1594.6	0.97654
1594.8	0.97621
1595.0	0.97589
1595.2	0.97603
1595.4	0.97616
1595.6	0.97629
1595.8	0.97643
1596.0	0.97654
1596.2	0.97593
1596.4	0.97531
1596.6	0.9747
1596.8	0.97409
1597.0	0.97349
1597.2	0.97332
1597.4	0.97315
1597.6	0.97299
1597.8	0.97282
1598.0	0.97262
1598.2	0.97161
1598.4	0.97061
1598.6	0.96961
1598.8	0.96861
1599.0	0.96763
1599.2	0.96695
1599.4	0.96627
1599.6	0.9656
1599.8	0.96492
1600.0	0.96425
1600.2	0.96456
1600.4	0.96487
1600.6	0.96518
1600.8	0.9655
1601.0	0.96574
1601.2	0.9644
1601.4	0.96306
1601.6	0.96173
1601.8	0.96039
1602.0	0.95907
1602.2	0.95875
1602.4	0.95843
1602.6	0.95812
1602.8	0.9578
1603.0	0.95749
1603.2	0.95822
1603.4	0.95896
1603.6	0.95969
1603.8	0.96042
1604.0	0.96113
1604.2	0.95983
1604.4	0.95853
1604.6	0.95724
1604.8	0.95595
1605.0	0.95466
