Typical Measured Spectrum of Semrock NF03-561E Optical Filter	
For wavelengths between 320 and 1120 nm, values near or below 3e-7 (Optical Density 6.5) are measurement noise limited.
For wavelengths < 320 nm and > 1120 nm, values near or below 3e-6 (Optical Density 5.5) are measurement noise limited. 
Data format:  Wavelength (nm) <tab> Transmission (0 to 1)
345.0	0.01545
345.2	0.01548
345.4	0.01552
345.6	0.01555
345.8	0.01547
346.0	0.01548
346.2	0.01549
346.4	0.01547
346.6	0.01549
346.8	0.0156
347.0	0.0157
347.2	0.01606
347.4	0.0164
347.6	0.01723
347.8	0.01826
348.0	0.02968
348.2	0.0872
348.4	0.14976
348.6	0.27319
348.8	0.4619
349.0	0.5929
349.2	0.62422
349.4	0.64056
349.6	0.65333
349.8	0.66447
350.0	0.67283
350.2	0.68049
350.4	0.68756
350.6	0.69118
350.8	0.69511
351.0	0.69616
351.2	0.70091
351.4	0.70318
351.6	0.70258
351.8	0.70203
352.0	0.70135
352.2	0.70425
352.4	0.69603
352.6	0.6994
352.8	0.70443
353.0	0.70238
353.2	0.70525
353.4	0.70785
353.6	0.71428
353.8	0.71493
354.0	0.71147
354.2	0.71747
354.4	0.72136
354.6	0.72175
354.8	0.72622
355.0	0.73021
355.2	0.73751
355.4	0.74252
355.6	0.74237
355.8	0.74729
356.0	0.74969
356.2	0.74878
356.4	0.75215
356.6	0.74976
356.8	0.74594
357.0	0.7508
357.2	0.75314
357.4	0.7503
357.6	0.75363
357.8	0.75843
358.0	0.75721
358.2	0.76078
358.4	0.76432
358.6	0.76076
358.8	0.76053
359.0	0.76925
359.2	0.77411
359.4	0.77529
359.6	0.77429
359.8	0.77024
360.0	0.76904
360.2	0.775
360.4	0.77579
360.6	0.77411
360.8	0.77803
361.0	0.78207
361.2	0.77677
361.4	0.77746
361.6	0.78455
361.8	0.78762
362.0	0.78555
362.2	0.78897
362.4	0.79422
362.6	0.79124
362.8	0.78745
363.0	0.79169
363.2	0.79801
363.4	0.79775
363.6	0.79659
363.8	0.79906
364.0	0.79933
364.2	0.79569
364.4	0.79692
364.6	0.8013
364.8	0.79927
365.0	0.79885
365.2	0.80664
365.4	0.80512
365.6	0.80136
365.8	0.80708
366.0	0.81166
366.2	0.8065
366.4	0.80065
366.6	0.80444
366.8	0.81355
367.0	0.81202
367.2	0.80814
367.4	0.81192
367.6	0.81744
367.8	0.81696
368.0	0.81483
368.2	0.81787
368.4	0.82385
368.6	0.81997
368.8	0.81633
369.0	0.82231
369.2	0.83084
369.4	0.82972
369.6	0.82261
369.8	0.82304
370.0	0.832
370.2	0.83799
370.4	0.83644
370.6	0.83681
370.8	0.84152
371.0	0.84215
371.2	0.83583
371.4	0.83347
371.6	0.84037
371.8	0.84954
372.0	0.8482
372.2	0.84183
372.4	0.84105
372.6	0.84842
372.8	0.84622
373.0	0.83822
373.2	0.83485
373.4	0.84444
373.6	0.8583
373.8	0.86055
374.0	0.85145
374.2	0.84998
374.4	0.85848
374.6	0.86481
374.8	0.86236
375.0	0.86234
375.2	0.86587
375.4	0.87411
375.6	0.87795
375.8	0.8749
376.0	0.87404
376.2	0.87851
376.4	0.87964
376.6	0.87368
376.8	0.86653
377.0	0.86821
377.2	0.87426
377.4	0.87733
377.6	0.87335
377.8	0.8701
378.0	0.87363
378.2	0.8816
378.4	0.88552
378.6	0.88114
378.8	0.87891
379.0	0.88425
379.2	0.88989
379.4	0.89102
379.6	0.88389
379.8	0.88184
380.0	0.887
380.2	0.89463
380.4	0.89613
380.6	0.89494
380.8	0.8951
381.0	0.90071
381.2	0.90672
381.4	0.9032
381.6	0.89472
381.8	0.89181
382.0	0.89633
382.2	0.90232
382.4	0.90448
382.6	0.90018
382.8	0.90123
383.0	0.90609
383.2	0.91147
383.4	0.90971
383.6	0.90193
383.8	0.89873
384.0	0.90152
384.2	0.90852
384.4	0.90909
384.6	0.90492
384.8	0.90181
385.0	0.90514
385.2	0.91303
385.4	0.9176
385.6	0.91411
385.8	0.90903
386.0	0.91126
386.2	0.91925
386.4	0.92534
386.6	0.91806
386.8	0.9084
387.0	0.90403
387.2	0.90869
387.4	0.91691
387.6	0.92139
387.8	0.91703
388.0	0.91169
388.2	0.91228
388.4	0.91875
388.6	0.92256
388.8	0.91929
389.0	0.91275
389.2	0.91079
389.4	0.91442
389.6	0.91939
389.8	0.91888
390.0	0.91349
390.2	0.90858
390.4	0.91042
390.6	0.91925
390.8	0.92483
391.0	0.92444
391.2	0.91994
391.4	0.91783
391.6	0.92187
391.8	0.92609
392.0	0.92655
392.2	0.92082
392.4	0.91386
392.6	0.91347
392.8	0.92031
393.0	0.92557
393.2	0.92538
393.4	0.92034
393.6	0.91731
393.8	0.92152
394.0	0.92841
394.2	0.93323
394.4	0.93105
394.6	0.92401
394.8	0.91991
395.0	0.92218
395.2	0.92718
395.4	0.92937
395.6	0.92655
395.8	0.92127
396.0	0.92093
396.2	0.92547
396.4	0.93336
396.6	0.93777
396.8	0.93499
397.0	0.9291
397.2	0.92727
397.4	0.93076
397.6	0.93509
397.8	0.9345
398.0	0.92917
398.2	0.92343
398.4	0.92208
398.6	0.92612
398.8	0.93292
399.0	0.93598
399.2	0.93126
399.4	0.92529
399.6	0.92356
399.8	0.92666
400.0	0.93198
400.2	0.93357
400.4	0.93129
400.6	0.92544
400.8	0.92486
401.0	0.92704
401.2	0.93253
401.4	0.93466
401.6	0.93165
401.8	0.92636
402.0	0.92407
402.2	0.9269
402.4	0.93265
402.6	0.93627
402.8	0.93427
403.0	0.9298
403.2	0.92591
403.4	0.92834
403.6	0.93285
403.8	0.93696
404.0	0.93446
404.2	0.93022
404.4	0.92497
404.6	0.92428
404.8	0.92832
405.0	0.93279
405.2	0.93342
405.4	0.92851
405.6	0.92308
405.8	0.92003
406.0	0.9218
406.2	0.92575
406.4	0.92886
406.6	0.92667
406.8	0.92139
407.0	0.91797
407.2	0.9183
407.4	0.9237
407.6	0.92866
407.8	0.9291
408.0	0.92469
408.2	0.92119
408.4	0.91986
408.6	0.92505
408.8	0.92993
409.0	0.93304
409.2	0.93183
409.4	0.92621
409.6	0.92172
409.8	0.9228
410.0	0.92717
410.2	0.93089
410.4	0.93097
410.6	0.9257
410.8	0.91926
411.0	0.91598
411.2	0.91768
411.4	0.92359
411.6	0.92927
411.8	0.92883
412.0	0.92371
412.2	0.91808
412.4	0.91568
412.6	0.9179
412.8	0.92407
413.0	0.92809
413.2	0.92842
413.4	0.92375
413.6	0.91997
413.8	0.91969
414.0	0.92321
414.2	0.92796
414.4	0.93156
414.6	0.92921
414.8	0.92541
415.0	0.92108
415.2	0.92207
415.4	0.92607
415.6	0.93198
415.8	0.93334
416.0	0.93124
416.2	0.92683
416.4	0.92211
416.6	0.92226
416.8	0.92584
417.0	0.93088
417.2	0.93318
417.4	0.9308
417.6	0.92585
417.8	0.92311
418.0	0.92273
418.2	0.92617
418.4	0.9307
418.6	0.93199
418.8	0.92959
419.0	0.92347
419.2	0.91929
419.4	0.92052
419.6	0.92403
419.8	0.92876
420.0	0.93318
420.2	0.93196
420.4	0.92903
420.6	0.92582
420.8	0.926
421.0	0.92932
421.2	0.93443
421.4	0.93823
421.6	0.93681
421.8	0.93312
422.0	0.93094
422.2	0.9305
422.4	0.93348
422.6	0.93729
422.8	0.94039
423.0	0.94015
423.2	0.93667
423.4	0.93273
423.6	0.93028
423.8	0.93194
424.0	0.93427
424.2	0.93892
424.4	0.9404
424.6	0.93842
424.8	0.93392
425.0	0.93101
425.2	0.93052
425.4	0.93276
425.6	0.93589
425.8	0.93665
426.0	0.9355
426.2	0.93244
426.4	0.92953
426.6	0.92963
426.8	0.93189
427.0	0.93624
427.2	0.93904
427.4	0.94016
427.6	0.93782
427.8	0.93443
428.0	0.93288
428.2	0.93447
428.4	0.93876
428.6	0.94294
428.8	0.94543
429.0	0.94498
429.2	0.94221
429.4	0.93855
429.6	0.93696
429.8	0.93884
430.0	0.94236
430.2	0.94524
430.4	0.94613
430.6	0.94361
430.8	0.94016
431.0	0.93717
431.2	0.9366
431.4	0.93932
431.6	0.94242
431.8	0.94475
432.0	0.94429
432.2	0.94056
432.4	0.93622
432.6	0.93462
432.8	0.93572
433.0	0.93896
433.2	0.94431
433.4	0.9458
433.6	0.9452
433.8	0.94157
434.0	0.93871
434.2	0.93588
434.4	0.93704
434.6	0.94075
434.8	0.9445
435.0	0.93609
435.2	0.93311
435.4	0.92929
435.6	0.92821
435.8	0.92974
436.0	0.93514
436.2	0.93967
436.4	0.94199
436.6	0.94115
436.8	0.93733
437.0	0.93329
437.2	0.93152
437.4	0.93295
437.6	0.9366
437.8	0.93984
438.0	0.94119
438.2	0.93995
438.4	0.93644
438.6	0.93215
438.8	0.92985
439.0	0.93155
439.2	0.93483
439.4	0.93844
439.6	0.93991
439.8	0.93825
440.0	0.93466
440.2	0.92988
440.4	0.92835
440.6	0.93001
440.8	0.93428
441.0	0.93885
441.2	0.94198
441.4	0.94069
441.6	0.93754
441.8	0.9336
442.0	0.93064
442.2	0.93096
442.4	0.93478
442.6	0.9395
442.8	0.9431
443.0	0.94368
443.2	0.94227
443.4	0.93805
443.6	0.93449
443.8	0.93448
444.0	0.93721
444.2	0.9419
444.4	0.9455
444.6	0.94774
444.8	0.94598
445.0	0.94209
445.2	0.93817
445.4	0.93667
445.6	0.93782
445.8	0.94164
446.0	0.94527
446.2	0.94711
446.4	0.94697
446.6	0.9435
446.8	0.93876
447.0	0.93633
447.2	0.93663
447.4	0.93888
447.6	0.94345
447.8	0.94633
448.0	0.94753
448.2	0.94504
448.4	0.9409
448.6	0.93723
448.8	0.93608
449.0	0.93758
449.2	0.94174
449.4	0.94678
449.6	0.94868
449.8	0.94823
450.0	0.94483
450.2	0.9405
450.4	0.9381
450.6	0.93938
450.8	0.94467
451.0	0.95156
451.2	0.95776
451.4	0.96132
451.6	0.95929
451.8	0.95415
452.0	0.94782
452.2	0.94337
452.4	0.94165
452.6	0.94399
452.8	0.94913
453.0	0.95352
453.2	0.9553
453.4	0.9541
453.6	0.94938
453.8	0.94404
454.0	0.94102
454.2	0.94093
454.4	0.94473
454.6	0.95007
454.8	0.95499
455.0	0.95676
455.2	0.95528
455.4	0.95077
455.6	0.94484
455.8	0.94041
456.0	0.94014
456.2	0.94247
456.4	0.9476
456.6	0.95277
456.8	0.95638
457.0	0.95582
457.2	0.95303
457.4	0.94934
457.6	0.94619
457.8	0.94609
458.0	0.94838
458.2	0.95202
458.4	0.95577
458.6	0.95702
458.8	0.95588
459.0	0.95205
459.2	0.94816
459.4	0.94655
459.6	0.94653
459.8	0.94989
460.0	0.95612
460.2	0.96089
460.4	0.96255
460.6	0.96205
460.8	0.95727
461.0	0.95172
461.2	0.94676
461.4	0.94426
461.6	0.94474
461.8	0.94866
462.0	0.9533
462.2	0.95628
462.4	0.9578
462.6	0.95613
462.8	0.95271
463.0	0.94925
463.2	0.94669
463.4	0.94707
463.6	0.94862
463.8	0.95146
464.0	0.95342
464.2	0.95413
464.4	0.95123
464.6	0.94773
464.8	0.94453
465.0	0.94336
465.2	0.94536
465.4	0.94843
465.6	0.95399
465.8	0.95899
466.0	0.96031
466.2	0.95964
466.4	0.95642
466.6	0.95146
466.8	0.94841
467.0	0.94637
467.2	0.94839
467.4	0.95316
467.6	0.95858
467.8	0.96266
468.0	0.96408
468.2	0.96134
468.4	0.95695
468.6	0.95172
468.8	0.9482
469.0	0.94836
469.2	0.95085
469.4	0.95473
469.6	0.9592
469.8	0.96116
470.0	0.96008
470.2	0.95687
470.4	0.95194
470.6	0.94674
470.8	0.94452
471.0	0.94433
471.2	0.94726
471.4	0.95182
471.6	0.95614
471.8	0.95856
472.0	0.95834
472.2	0.95531
472.4	0.95127
472.6	0.94751
472.8	0.94518
473.0	0.9453
473.2	0.94799
473.4	0.95103
473.6	0.95418
473.8	0.95643
474.0	0.95595
474.2	0.95429
474.4	0.95171
474.6	0.94925
474.8	0.94859
475.0	0.94913
475.2	0.95155
475.4	0.95427
475.6	0.95628
475.8	0.9569
476.0	0.95569
476.2	0.95334
476.4	0.95033
476.6	0.94862
476.8	0.9476
477.0	0.94935
477.2	0.95181
477.4	0.95422
477.6	0.95628
477.8	0.95637
478.0	0.95402
478.2	0.95102
478.4	0.94772
478.6	0.94502
478.8	0.94452
479.0	0.94597
479.2	0.94931
479.4	0.95267
479.6	0.95558
479.8	0.95617
480.0	0.95551
480.2	0.95271
480.4	0.94943
480.6	0.94634
480.8	0.94422
481.0	0.94456
481.2	0.94632
481.4	0.94877
481.6	0.95196
481.8	0.95335
482.0	0.95342
482.2	0.95183
482.4	0.94961
482.6	0.94738
482.8	0.94598
483.0	0.94652
483.2	0.9481
483.4	0.95041
483.6	0.9537
483.8	0.9551
484.0	0.95515
484.2	0.95493
484.4	0.95339
484.6	0.95001
484.8	0.94881
485.0	0.9485
485.2	0.94969
485.4	0.95178
485.6	0.95416
485.8	0.95528
486.0	0.95656
486.2	0.955
486.4	0.95272
486.6	0.9501
486.8	0.94814
487.0	0.94636
487.2	0.94709
487.4	0.9483
487.6	0.95027
487.8	0.95214
488.0	0.95358
488.2	0.95295
488.4	0.95127
488.6	0.94918
488.8	0.94714
489.0	0.94507
489.2	0.9448
489.4	0.94541
489.6	0.94731
489.8	0.94909
490.0	0.95107
490.2	0.95179
490.4	0.95083
490.6	0.94924
490.8	0.9469
491.0	0.94439
491.2	0.94376
491.4	0.94396
491.6	0.94552
491.8	0.94853
492.0	0.95174
492.2	0.95384
492.4	0.95498
492.6	0.9553
492.8	0.95429
493.0	0.95182
493.2	0.95009
493.4	0.94858
493.6	0.94812
493.8	0.94881
494.0	0.95045
494.2	0.95184
494.4	0.95247
494.6	0.95296
494.8	0.95185
495.0	0.95007
495.2	0.94803
495.4	0.94704
495.6	0.94609
495.8	0.94647
496.0	0.94751
496.2	0.94885
496.4	0.94987
496.6	0.94958
496.8	0.94876
497.0	0.94686
497.2	0.94504
497.4	0.94267
497.6	0.94162
497.8	0.94151
498.0	0.9423
498.2	0.94444
498.4	0.94666
498.6	0.94899
498.8	0.9495
499.0	0.95
499.2	0.94854
499.4	0.94739
499.6	0.94585
499.8	0.94535
500.0	0.94539
500.2	0.94566
500.4	0.94726
500.6	0.95002
500.8	0.95171
501.0	0.95254
501.2	0.95279
501.4	0.95167
501.6	0.94785
501.8	0.94568
502.0	0.94352
502.2	0.94061
502.4	0.94093
502.6	0.9434
502.8	0.94459
503.0	0.94783
503.2	0.95185
503.4	0.95272
503.6	0.95251
503.8	0.95208
504.0	0.9499
504.2	0.94513
504.4	0.94371
504.6	0.94219
504.8	0.94082
505.0	0.94173
505.2	0.94429
505.4	0.94605
505.6	0.94805
505.8	0.94981
506.0	0.95019
506.2	0.94883
506.4	0.94809
506.6	0.94739
506.8	0.94559
507.0	0.94573
507.2	0.94752
507.4	0.94778
507.6	0.94832
507.8	0.94997
508.0	0.94992
508.2	0.94737
508.4	0.94568
508.6	0.94351
508.8	0.94005
509.0	0.93687
509.2	0.93758
509.4	0.93754
509.6	0.93811
509.8	0.94128
510.0	0.94417
510.2	0.94553
510.4	0.9468
510.6	0.94827
510.8	0.94661
511.0	0.94466
511.2	0.94386
511.4	0.9428
511.6	0.94149
511.8	0.94303
512.0	0.94569
512.2	0.94724
512.4	0.94868
512.6	0.95119
512.8	0.95186
513.0	0.95059
513.2	0.94992
513.4	0.9486
513.6	0.9464
513.8	0.94429
514.0	0.94541
514.2	0.94588
514.4	0.94697
514.6	0.94908
514.8	0.95217
515.0	0.95261
515.2	0.95217
515.4	0.95248
515.6	0.95112
515.8	0.94793
516.0	0.94509
516.2	0.94417
516.4	0.94216
516.6	0.9409
516.8	0.94142
517.0	0.94345
517.2	0.94357
517.4	0.94408
517.6	0.94588
517.8	0.94561
518.0	0.94462
518.2	0.94478
518.4	0.94432
518.6	0.94299
518.8	0.94267
519.0	0.94375
519.2	0.9433
519.4	0.94316
519.6	0.94316
519.8	0.94401
520.0	0.94294
520.2	0.94122
520.4	0.94167
520.6	0.94224
520.8	0.94202
521.0	0.94305
521.2	0.94611
521.4	0.9482
521.6	0.94845
521.8	0.95036
522.0	0.95109
522.2	0.94958
522.4	0.94684
522.6	0.9447
522.8	0.94236
523.0	0.93938
523.2	0.9374
523.4	0.93879
523.6	0.94049
523.8	0.94171
524.0	0.9455
524.2	0.94875
524.4	0.94997
524.6	0.95038
524.8	0.9498
525.0	0.94918
525.2	0.94523
525.4	0.94172
525.6	0.94081
525.8	0.94006
526.0	0.93952
526.2	0.94162
526.4	0.94637
526.6	0.9493
526.8	0.95167
527.0	0.95405
527.2	0.95531
527.4	0.95371
527.6	0.95092
527.8	0.94772
528.0	0.94479
528.2	0.94196
528.4	0.93967
528.6	0.93958
528.8	0.94157
529.0	0.94296
529.2	0.94435
529.4	0.94681
529.6	0.94838
529.8	0.94736
530.0	0.94533
530.2	0.94352
530.4	0.9417
530.6	0.93828
530.8	0.9367
531.0	0.93749
531.2	0.9385
531.4	0.93868
531.6	0.94049
531.8	0.94377
532.0	0.94426
532.2	0.94322
532.4	0.94259
532.6	0.94252
532.8	0.94021
533.0	0.93784
533.2	0.93799
533.4	0.93978
533.6	0.9422
533.8	0.94439
534.0	0.94848
534.2	0.95278
534.4	0.95496
534.6	0.95569
534.8	0.95536
535.0	0.95411
535.2	0.95138
535.4	0.94717
535.6	0.94425
535.8	0.94341
536.0	0.94301
536.2	0.94281
536.4	0.94479
536.6	0.94778
536.8	0.94918
537.0	0.9489
537.2	0.94825
537.4	0.94676
537.6	0.94408
537.8	0.93917
538.0	0.93551
538.2	0.93432
538.4	0.93364
538.6	0.93364
538.8	0.93651
539.0	0.94148
539.2	0.94593
539.4	0.94886
539.6	0.95136
539.8	0.9524
540.0	0.95153
540.2	0.95143
540.4	0.9502
540.6	0.94548
540.8	0.94275
541.0	0.94073
541.2	0.93914
541.4	0.93671
541.6	0.93946
541.8	0.94296
542.0	0.94545
542.2	0.94931
542.4	0.95137
542.6	0.95418
542.8	0.95521
543.0	0.95304
543.2	0.95325
543.4	0.95388
543.6	0.95392
543.8	0.95384
544.0	0.95665
544.2	0.95993
544.4	0.96136
544.6	0.96257
544.8	0.96181
545.0	0.95983
545.2	0.95693
545.4	0.95344
545.6	0.94789
545.8	0.94593
546.0	0.94527
546.2	0.94733
546.4	0.94946
546.6	0.95208
546.8	0.95658
547.0	0.95984
547.2	0.95958
547.4	0.95506
547.6	0.94878
547.8	0.94234
548.0	0.93522
548.2	0.92912
548.4	0.92428
548.6	0.92323
548.8	0.92708
549.0	0.93176
549.2	0.9365
549.4	0.94334
549.6	0.949
549.8	0.95344
550.0	0.95456
550.2	0.95616
550.4	0.95658
550.6	0.95892
550.8	0.95974
551.0	0.96134
551.2	0.96103
551.4	0.959
551.6	0.95808
551.8	0.95586
552.0	0.95624
552.2	0.95803
552.4	0.95925
552.6	0.9574
552.8	0.9457
553.0	0.9271
553.2	0.90669
553.4	0.89986
553.6	0.91107
553.8	0.86637
554.0	0.65184
554.2	0.34483
554.4	0.12993
554.6	0.05095
554.8	0.02127
555.0	0.0098
555.2	0.00494
555.4	0.00269
555.6	0.00158
555.8	8.0441e-04
556.0	4.7153e-04
556.2	2.8573e-04
556.4	1.7872e-04
556.6	1.1805e-04
556.8	7.8516e-05
557.0	5.405e-05
557.2	3.9158e-05
557.4	2.8129e-05
557.6	2.0206e-05
557.8	1.4913e-05
558.0	1.1274e-05
558.2	8.5287e-06
558.4	6.6671e-06
558.6	5.2118e-06
558.8	4.2476e-06
559.0	3.4648e-06
559.2	2.8651e-06
559.4	2.4059e-06
559.6	2.0203e-06
559.8	1.7331e-06
560.0	1.488e-06
560.2	1.3057e-06
560.4	1.1468e-06
560.6	1.0241e-06
560.8	9.3326e-07
561.0	8.5045e-07
561.2	7.8196e-07
561.4	7.194e-07
561.6	7.0053e-07
561.8	6.8647e-07
562.0	6.667e-07
562.2	6.3852e-07
562.4	6.1153e-07
562.6	6.0031e-07
562.8	5.9127e-07
563.0	5.7589e-07
563.2	5.5972e-07
563.4	5.4819e-07
563.6	5.4534e-07
563.8	5.425e-07
564.0	5.4792e-07
564.2	5.5523e-07
564.4	5.7524e-07
564.6	5.9971e-07
564.8	6.2193e-07
565.0	6.3585e-07
565.2	6.5009e-07
565.4	6.8471e-07
565.6	7.2797e-07
565.8	7.7865e-07
566.0	8.3477e-07
566.2	9.0409e-07
566.4	1.0162e-06
566.6	1.1423e-06
566.8	1.27e-06
567.0	1.4056e-06
567.2	1.6532e-06
567.4	1.9933e-06
567.6	2.3961e-06
567.8	2.8447e-06
568.0	3.3774e-06
568.2	4.1022e-06
568.4	5.0338e-06
568.6	6.3819e-06
568.8	8.2343e-06
569.0	1.0664e-05
569.2	1.4126e-05
569.4	1.8713e-05
569.6	2.5088e-05
569.8	3.3873e-05
570.0	4.7326e-05
570.2	6.7093e-05
570.4	9.6383e-05
570.6	1.4429e-04
570.8	2.1818e-04
571.0	3.3571e-04
571.2	5.4659e-04
571.4	8.9258e-04
571.6	0.00147
571.8	0.00246
572.0	0.00439
572.2	0.00824
572.4	0.01645
572.6	0.03536
572.8	0.08268
573.0	0.18761
573.2	0.38994
573.4	0.65697
573.6	0.84814
573.8	0.92625
574.0	0.94994
574.2	0.96186
574.4	0.96597
574.6	0.96244
574.8	0.95139
575.0	0.93964
575.2	0.93121
575.4	0.92724
575.6	0.92927
575.8	0.93675
576.0	0.94443
576.2	0.95122
576.4	0.95413
576.6	0.95169
576.8	0.94484
577.0	0.93616
577.2	0.93079
577.4	0.92621
577.6	0.92439
577.8	0.92514
578.0	0.92897
578.2	0.9368
578.4	0.94473
578.6	0.95255
578.8	0.95885
579.0	0.96199
579.2	0.9642
579.4	0.96531
579.6	0.96369
579.8	0.96065
580.0	0.95721
580.2	0.95386
580.4	0.95118
580.6	0.94946
580.8	0.94792
581.0	0.9459
581.2	0.94343
581.4	0.94395
581.6	0.9457
581.8	0.94772
582.0	0.9488
582.2	0.9501
582.4	0.95371
582.6	0.95601
582.8	0.95827
583.0	0.96028
583.2	0.96071
583.4	0.96004
583.6	0.95879
583.8	0.95685
584.0	0.95358
584.2	0.94924
584.4	0.94485
584.6	0.94072
584.8	0.93803
585.0	0.93669
585.2	0.93476
585.4	0.93381
585.6	0.93407
585.8	0.9371
586.0	0.94018
586.2	0.94255
586.4	0.94449
586.6	0.94707
586.8	0.94977
587.0	0.95242
587.2	0.95365
587.4	0.9537
587.6	0.95315
587.8	0.95332
588.0	0.95328
588.2	0.95246
588.4	0.9511
588.6	0.94892
588.8	0.94792
589.0	0.94706
589.2	0.9468
589.4	0.94588
589.6	0.94473
589.8	0.94426
590.0	0.94516
590.2	0.94683
590.4	0.94755
590.6	0.94802
590.8	0.9492
591.0	0.95077
591.2	0.95283
591.4	0.95423
591.6	0.95423
591.8	0.95377
592.0	0.95345
592.2	0.95318
592.4	0.95287
592.6	0.95152
592.8	0.94987
593.0	0.94842
593.2	0.94788
593.4	0.94835
593.6	0.94858
593.8	0.94841
594.0	0.94827
594.2	0.94915
594.4	0.95048
594.6	0.95205
594.8	0.95216
595.0	0.95168
595.2	0.95102
595.4	0.95092
595.6	0.95071
595.8	0.9504
596.0	0.94875
596.2	0.94715
596.4	0.94662
596.6	0.947
596.8	0.9478
597.0	0.94818
597.2	0.94844
597.4	0.94944
597.6	0.95159
597.8	0.95425
598.0	0.95588
598.2	0.95682
598.4	0.95733
598.6	0.95829
598.8	0.95951
599.0	0.96017
599.2	0.95961
599.4	0.95893
599.6	0.95796
599.8	0.95759
600.0	0.95802
600.2	0.95746
600.4	0.95677
600.6	0.95554
600.8	0.9551
601.0	0.95529
601.2	0.95597
601.4	0.9555
601.6	0.95468
601.8	0.95366
602.0	0.95393
602.2	0.95396
602.4	0.95435
602.6	0.95371
602.8	0.95271
603.0	0.95236
603.2	0.95233
603.4	0.95265
603.6	0.95261
603.8	0.95163
604.0	0.95034
604.2	0.9491
604.4	0.94868
604.6	0.94845
604.8	0.94675
605.0	0.94497
605.2	0.94292
605.4	0.94254
605.6	0.94268
605.8	0.94295
606.0	0.94303
606.2	0.9426
606.4	0.94435
606.6	0.94632
606.8	0.94894
607.0	0.95101
607.2	0.95211
607.4	0.95343
607.6	0.95455
607.8	0.95588
608.0	0.95648
608.2	0.95483
608.4	0.9529
608.6	0.95232
608.8	0.95174
609.0	0.95074
609.2	0.94999
609.4	0.94944
609.6	0.94974
609.8	0.95138
610.0	0.95309
610.2	0.95465
610.4	0.95567
610.6	0.95666
610.8	0.95786
611.0	0.95956
611.2	0.96054
611.4	0.96035
611.6	0.95917
611.8	0.95743
612.0	0.95657
612.2	0.95556
612.4	0.95442
612.6	0.95331
612.8	0.95182
613.0	0.95068
613.2	0.95057
613.4	0.95218
613.6	0.95293
613.8	0.95334
614.0	0.95398
614.2	0.95423
614.4	0.95534
614.6	0.95657
614.8	0.95744
615.0	0.95642
615.2	0.95569
615.4	0.9543
615.6	0.95333
615.8	0.95323
616.0	0.95223
616.2	0.95083
616.4	0.9489
616.6	0.94811
616.8	0.94838
617.0	0.94887
617.2	0.94948
617.4	0.94961
617.6	0.94923
617.8	0.9494
618.0	0.95035
618.2	0.9516
618.4	0.95232
618.6	0.95196
618.8	0.95094
619.0	0.95034
619.2	0.95046
619.4	0.95092
619.6	0.95111
619.8	0.95079
620.0	0.94983
620.2	0.94961
620.4	0.95041
620.6	0.95113
620.8	0.9517
621.0	0.95166
621.2	0.95139
621.4	0.95098
621.6	0.95105
621.8	0.9518
622.0	0.95204
622.2	0.95114
622.4	0.94989
622.6	0.94875
622.8	0.94851
623.0	0.94913
623.2	0.94998
623.4	0.95017
623.6	0.95008
623.8	0.95087
624.0	0.95207
624.2	0.95396
624.4	0.95574
624.6	0.95722
624.8	0.9578
625.0	0.95788
625.2	0.95745
625.4	0.95803
625.6	0.95811
625.8	0.95749
626.0	0.95578
626.2	0.95361
626.4	0.95204
626.6	0.95162
626.8	0.95139
627.0	0.95137
627.2	0.95063
627.4	0.95045
627.6	0.95067
627.8	0.95145
628.0	0.9535
628.2	0.95509
628.4	0.95587
628.6	0.95623
628.8	0.95626
629.0	0.95619
629.2	0.95659
629.4	0.95647
629.6	0.95548
629.8	0.95375
630.0	0.95157
630.2	0.94978
630.4	0.94905
630.6	0.949
630.8	0.94866
631.0	0.94807
631.2	0.94774
631.4	0.94816
631.6	0.94932
631.8	0.95146
632.0	0.9533
632.2	0.95484
632.4	0.9552
632.6	0.95559
632.8	0.95607
633.0	0.95616
633.2	0.95638
633.4	0.9557
633.6	0.95416
633.8	0.95203
634.0	0.94968
634.2	0.94834
634.4	0.94778
634.6	0.94746
634.8	0.94636
635.0	0.94555
635.2	0.94478
635.4	0.94521
635.6	0.94685
635.8	0.94829
636.0	0.94985
636.2	0.95057
636.4	0.95045
636.6	0.95099
636.8	0.95163
637.0	0.95264
637.2	0.95232
637.4	0.95168
637.6	0.95062
637.8	0.94958
638.0	0.949
638.2	0.94873
638.4	0.94932
638.6	0.94913
638.8	0.94872
639.0	0.94862
639.2	0.94904
639.4	0.9506
639.6	0.95211
639.8	0.95363
640.0	0.95461
640.2	0.95463
640.4	0.95444
640.6	0.95476
640.8	0.95503
641.0	0.95535
641.2	0.95505
641.4	0.95362
641.6	0.95255
641.8	0.95124
642.0	0.9508
642.2	0.95105
642.4	0.95149
642.6	0.95213
642.8	0.9521
643.0	0.95282
643.2	0.95364
643.4	0.95558
643.6	0.95716
643.8	0.95872
644.0	0.95966
644.2	0.95972
644.4	0.95938
644.6	0.95886
644.8	0.95853
645.0	0.95807
645.2	0.95725
645.4	0.95572
645.6	0.95293
645.8	0.9509
646.0	0.94959
646.2	0.94891
646.4	0.94919
646.6	0.949
646.8	0.94877
647.0	0.94851
647.2	0.9489
647.4	0.94963
647.6	0.9516
647.8	0.95325
648.0	0.95396
648.2	0.95448
648.4	0.95408
648.6	0.95345
648.8	0.95331
649.0	0.95303
649.2	0.9529
649.4	0.95188
649.6	0.95016
649.8	0.94834
650.0	0.94694
650.2	0.94657
650.4	0.94683
650.6	0.94729
650.8	0.94804
651.0	0.9477
651.2	0.94818
651.4	0.949
651.6	0.95091
651.8	0.9532
652.0	0.95474
652.2	0.95551
652.4	0.95587
652.6	0.95539
652.8	0.95521
653.0	0.95476
653.2	0.95448
653.4	0.95399
653.6	0.95267
653.8	0.95095
654.0	0.9488
654.2	0.94739
654.4	0.94728
654.6	0.94791
654.8	0.9488
655.0	0.9491
655.2	0.94921
655.4	0.94966
655.6	0.95062
655.8	0.9526
656.0	0.95459
656.2	0.95636
656.4	0.95754
656.6	0.95784
656.8	0.95757
657.0	0.95778
657.2	0.95734
657.4	0.9577
657.6	0.95715
657.8	0.95644
658.0	0.955
658.2	0.95369
658.4	0.95222
658.6	0.95169
658.8	0.95213
659.0	0.95283
659.2	0.95347
659.4	0.95305
659.6	0.95314
659.8	0.9538
660.0	0.95472
660.2	0.95596
660.4	0.95721
660.6	0.95746
660.8	0.9577
661.0	0.95692
661.2	0.95612
661.4	0.95551
661.6	0.95521
661.8	0.95489
662.0	0.95434
662.2	0.95333
662.4	0.95187
662.6	0.95057
662.8	0.95009
663.0	0.95048
663.2	0.95183
663.4	0.95272
663.6	0.95351
663.8	0.95412
664.0	0.95398
664.2	0.95502
664.4	0.95609
664.6	0.95718
664.8	0.95819
665.0	0.95801
665.2	0.95767
665.4	0.95669
665.6	0.95511
665.8	0.95378
666.0	0.95334
666.2	0.95237
666.4	0.95135
666.6	0.95042
666.8	0.94857
667.0	0.94738
667.2	0.94689
667.4	0.94767
667.6	0.9486
667.8	0.95014
668.0	0.9508
668.2	0.95116
668.4	0.95191
668.6	0.95282
668.8	0.95405
669.0	0.95576
669.2	0.95675
669.4	0.95741
669.6	0.95701
669.8	0.95584
670.0	0.9549
670.2	0.95443
670.4	0.95374
670.6	0.95342
670.8	0.95304
671.0	0.95259
671.2	0.95145
671.4	0.95039
671.6	0.95006
671.8	0.95078
672.0	0.95226
672.2	0.9533
672.4	0.95463
672.6	0.95517
672.8	0.95584
673.0	0.95724
673.2	0.95847
673.4	0.9586
673.6	0.95838
673.8	0.95828
674.0	0.95744
674.2	0.95709
674.4	0.95594
674.6	0.95488
674.8	0.95367
675.0	0.95303
675.2	0.95266
675.4	0.95185
675.6	0.95153
675.8	0.95151
676.0	0.9518
676.2	0.95284
676.4	0.95369
676.6	0.95462
676.8	0.95614
677.0	0.95705
677.2	0.9583
677.4	0.95937
677.6	0.95978
677.8	0.96042
678.0	0.9605
678.2	0.9605
678.4	0.96003
678.6	0.95912
678.8	0.95801
679.0	0.95712
679.2	0.95592
679.4	0.95504
679.6	0.95427
679.8	0.95331
680.0	0.95265
680.2	0.95248
680.4	0.95258
680.6	0.9526
680.8	0.95308
681.0	0.9538
681.2	0.95464
681.4	0.95553
681.6	0.95639
681.8	0.95687
682.0	0.95747
682.2	0.95769
682.4	0.95777
682.6	0.95777
682.8	0.95728
683.0	0.95649
683.2	0.95614
683.4	0.95528
683.6	0.95429
683.8	0.95343
684.0	0.95279
684.2	0.95205
684.4	0.95179
684.6	0.95158
684.8	0.95147
685.0	0.9516
685.2	0.95229
685.4	0.95285
685.6	0.95359
685.8	0.95402
686.0	0.95464
686.2	0.9551
686.4	0.95532
686.6	0.95544
686.8	0.95541
687.0	0.95528
687.2	0.95471
687.4	0.95394
687.6	0.95295
687.8	0.95211
688.0	0.95115
688.2	0.95053
688.4	0.95002
688.6	0.94935
688.8	0.9493
689.0	0.94919
689.2	0.94952
689.4	0.95038
689.6	0.95099
689.8	0.95202
690.0	0.95337
690.2	0.95459
690.4	0.95563
690.6	0.95682
690.8	0.95779
691.0	0.95848
691.2	0.95908
691.4	0.95891
691.6	0.95913
691.8	0.95892
692.0	0.9578
692.2	0.95735
692.4	0.95663
692.6	0.95522
692.8	0.95469
693.0	0.95336
693.2	0.95277
693.4	0.95247
693.6	0.95224
693.8	0.95226
694.0	0.95254
694.2	0.95324
694.4	0.95444
694.6	0.95521
694.8	0.95642
695.0	0.95754
695.2	0.95871
695.4	0.95995
695.6	0.96085
695.8	0.9613
696.0	0.96156
696.2	0.96161
696.4	0.96131
696.6	0.96088
696.8	0.95992
697.0	0.95894
697.2	0.95807
697.4	0.9565
697.6	0.95564
697.8	0.95451
698.0	0.95359
698.2	0.95325
698.4	0.95257
698.6	0.95268
698.8	0.95285
699.0	0.95329
699.2	0.9539
699.4	0.9548
699.6	0.95568
699.8	0.95679
700.0	0.95761
700.2	0.95826
700.4	0.95866
700.6	0.95928
700.8	0.95948
701.0	0.95934
701.2	0.95888
701.4	0.95824
701.6	0.95699
701.8	0.95583
702.0	0.95465
702.2	0.95321
702.4	0.95222
702.6	0.95117
702.8	0.94995
703.0	0.94911
703.2	0.94893
703.4	0.94857
703.6	0.94892
703.8	0.94882
704.0	0.94944
704.2	0.94977
704.4	0.95042
704.6	0.95129
704.8	0.95222
705.0	0.95308
705.2	0.95394
705.4	0.95465
705.6	0.9545
705.8	0.95478
706.0	0.9547
706.2	0.95449
706.4	0.95409
706.6	0.95375
706.8	0.95316
707.0	0.95279
707.2	0.95231
707.4	0.95168
707.6	0.95144
707.8	0.95127
708.0	0.95128
708.2	0.95146
708.4	0.95195
708.6	0.95239
708.8	0.95314
709.0	0.95382
709.2	0.95469
709.4	0.9554
709.6	0.95642
709.8	0.95704
710.0	0.9576
710.2	0.95791
710.4	0.958
710.6	0.95811
710.8	0.95757
711.0	0.95748
711.2	0.95672
711.4	0.95616
711.6	0.95545
711.8	0.95479
712.0	0.95392
712.2	0.95313
712.4	0.95333
712.6	0.95314
712.8	0.95308
713.0	0.95329
713.2	0.95368
713.4	0.95413
713.6	0.95479
713.8	0.95614
714.0	0.95685
714.2	0.95774
714.4	0.95871
714.6	0.9595
714.8	0.96019
715.0	0.96058
715.2	0.96118
715.4	0.96099
715.6	0.96063
715.8	0.96055
716.0	0.9602
716.2	0.95906
716.4	0.9583
716.6	0.95744
716.8	0.9571
717.0	0.95549
717.2	0.95531
717.4	0.95492
717.6	0.95426
717.8	0.9543
718.0	0.95389
718.2	0.95468
718.4	0.95506
718.6	0.95558
718.8	0.95624
719.0	0.95708
719.2	0.9579
719.4	0.95843
719.6	0.95903
719.8	0.95968
720.0	0.95986
720.2	0.95973
720.4	0.95948
720.6	0.95932
720.8	0.95876
721.0	0.95759
721.2	0.95692
721.4	0.95578
721.6	0.95474
721.8	0.9536
722.0	0.95265
722.2	0.9519
722.4	0.95124
722.6	0.95106
722.8	0.9507
723.0	0.95071
723.2	0.95095
723.4	0.95155
723.6	0.95249
723.8	0.95338
724.0	0.95457
724.2	0.95534
724.4	0.95638
724.6	0.95728
724.8	0.95833
725.0	0.95887
725.2	0.95938
725.4	0.95963
725.6	0.95964
725.8	0.95914
726.0	0.95866
726.2	0.95794
726.4	0.95746
726.6	0.9564
726.8	0.95515
727.0	0.95424
727.2	0.95321
727.4	0.9526
727.6	0.95218
727.8	0.95166
728.0	0.95165
728.2	0.95138
728.4	0.95222
728.6	0.95291
728.8	0.95372
729.0	0.95443
729.2	0.95528
729.4	0.95669
729.6	0.95782
729.8	0.95863
730.0	0.9598
730.2	0.9607
730.4	0.96095
730.6	0.96165
730.8	0.96141
731.0	0.96131
731.2	0.96102
731.4	0.96043
731.6	0.95961
731.8	0.95861
732.0	0.95805
732.2	0.95753
732.4	0.95656
732.6	0.95596
732.8	0.95541
733.0	0.95513
733.2	0.955
733.4	0.95526
733.6	0.95547
733.8	0.95621
734.0	0.95704
734.2	0.9579
734.4	0.95878
734.6	0.95984
734.8	0.96095
735.0	0.96222
735.2	0.96288
735.4	0.96341
735.6	0.96387
735.8	0.96403
736.0	0.96409
736.2	0.96403
736.4	0.96308
736.6	0.96277
736.8	0.96176
737.0	0.96096
737.2	0.95978
737.4	0.95882
737.6	0.95767
737.8	0.95665
738.0	0.95662
738.2	0.95654
738.4	0.95588
738.6	0.95506
738.8	0.95481
739.0	0.95526
739.2	0.95452
739.4	0.95456
739.6	0.9559
739.8	0.95587
740.0	0.95697
740.2	0.95787
740.4	0.95908
740.6	0.95957
740.8	0.96032
741.0	0.96107
741.2	0.96131
741.4	0.96152
741.6	0.9616
741.8	0.96128
742.0	0.96096
742.2	0.96007
742.4	0.95954
742.6	0.95902
742.8	0.95791
743.0	0.95692
743.2	0.95589
743.4	0.95573
743.6	0.95465
743.8	0.95457
744.0	0.95431
744.2	0.95376
744.4	0.95368
744.6	0.95415
744.8	0.95472
745.0	0.95558
745.2	0.95637
745.4	0.95711
745.6	0.9573
745.8	0.95889
746.0	0.96008
746.2	0.96063
746.4	0.96099
746.6	0.96119
746.8	0.96179
747.0	0.96157
747.2	0.96197
747.4	0.96142
747.6	0.95999
747.8	0.95968
748.0	0.95895
748.2	0.95827
748.4	0.95724
748.6	0.95654
748.8	0.9554
749.0	0.95478
749.2	0.95392
749.4	0.95381
749.6	0.95361
749.8	0.95355
750.0	0.95394
750.2	0.95428
750.4	0.95491
750.6	0.95567
750.8	0.95677
751.0	0.95718
751.2	0.95832
751.4	0.95979
751.6	0.9603
751.8	0.96148
752.0	0.96248
752.2	0.96235
752.4	0.96293
752.6	0.96263
752.8	0.96275
753.0	0.96222
753.2	0.9619
753.4	0.96147
753.6	0.96058
753.8	0.95998
754.0	0.95872
754.2	0.9579
754.4	0.95697
754.6	0.95768
754.8	0.95732
755.0	0.95653
755.2	0.95654
755.4	0.95641
755.6	0.95734
755.8	0.95835
756.0	0.95917
756.2	0.95998
756.4	0.96118
756.6	0.96262
756.8	0.96407
757.0	0.96512
757.2	0.96554
757.4	0.96664
757.6	0.96732
757.8	0.96735
758.0	0.96737
758.2	0.9675
758.4	0.96811
758.6	0.96738
758.8	0.96718
759.0	0.96625
759.2	0.96516
759.4	0.96463
759.6	0.96364
759.8	0.96265
760.0	0.96181
760.2	0.96083
760.4	0.9594
760.6	0.95966
760.8	0.95902
761.0	0.95871
761.2	0.95869
761.4	0.95934
761.6	0.9599
761.8	0.96028
762.0	0.96088
762.2	0.96183
762.4	0.9625
762.6	0.9633
762.8	0.96492
763.0	0.96392
763.2	0.96533
763.4	0.96454
763.6	0.96565
763.8	0.96547
764.0	0.96571
764.2	0.96384
764.4	0.96386
764.6	0.96367
764.8	0.9622
765.0	0.96185
765.2	0.96051
765.4	0.96022
765.6	0.95879
765.8	0.95791
766.0	0.9579
766.2	0.95726
766.4	0.95657
766.6	0.95649
766.8	0.95672
767.0	0.9571
767.2	0.95744
767.4	0.95792
767.6	0.95884
767.8	0.95947
768.0	0.96008
768.2	0.96122
768.4	0.96219
768.6	0.9626
768.8	0.96324
769.0	0.96385
769.2	0.96419
769.4	0.96398
769.6	0.96432
769.8	0.96384
770.0	0.96404
770.2	0.96326
770.4	0.96255
770.6	0.9608
770.8	0.96084
771.0	0.95944
771.2	0.95917
771.4	0.95851
771.6	0.95779
771.8	0.95729
772.0	0.95677
772.2	0.95672
772.4	0.95735
772.6	0.957
772.8	0.95729
773.0	0.95785
773.2	0.95852
773.4	0.95926
773.6	0.96006
773.8	0.96129
774.0	0.96183
774.2	0.96269
774.4	0.9641
774.6	0.96549
774.8	0.96543
775.0	0.96571
775.2	0.96631
775.4	0.96619
775.6	0.96611
775.8	0.96643
776.0	0.96641
776.2	0.96547
776.4	0.96499
776.6	0.96384
776.8	0.9637
777.0	0.96312
777.2	0.9626
777.4	0.96148
777.6	0.96151
777.8	0.96132
778.0	0.96076
778.2	0.96087
778.4	0.96125
778.6	0.96122
778.8	0.96187
779.0	0.96286
779.2	0.96322
779.4	0.96376
779.6	0.9653
779.8	0.96565
780.0	0.96657
780.2	0.96761
780.4	0.96858
780.6	0.96912
780.8	0.96884
781.0	0.96875
781.2	0.96947
781.4	0.96938
781.6	0.96919
781.8	0.96796
782.0	0.96795
782.2	0.96708
782.4	0.96612
782.6	0.96536
782.8	0.96435
783.0	0.96409
783.2	0.96337
783.4	0.96227
783.6	0.96204
783.8	0.96155
784.0	0.96091
784.2	0.96089
784.4	0.96109
784.6	0.96167
784.8	0.96151
785.0	0.96261
785.2	0.9628
785.4	0.96375
785.6	0.96501
785.8	0.96559
786.0	0.96604
786.2	0.96704
786.4	0.96677
786.6	0.96802
786.8	0.96864
787.0	0.96849
787.2	0.96825
787.4	0.96854
787.6	0.9681
787.8	0.96779
788.0	0.96751
788.2	0.96645
788.4	0.96617
788.6	0.96484
788.8	0.96363
789.0	0.96277
789.2	0.96178
789.4	0.96173
789.6	0.96063
789.8	0.96012
790.0	0.95962
790.2	0.95913
790.4	0.95962
790.6	0.9593
790.8	0.95988
791.0	0.96012
791.2	0.96063
791.4	0.96114
791.6	0.96191
791.8	0.96247
792.0	0.96328
792.2	0.96433
792.4	0.96482
792.6	0.96526
792.8	0.9659
793.0	0.96656
793.2	0.96694
793.4	0.96733
793.6	0.96649
793.8	0.96576
794.0	0.96607
794.2	0.96612
794.4	0.965
794.6	0.9649
794.8	0.96324
795.0	0.96008
795.2	0.95928
795.4	0.95853
795.6	0.95776
795.8	0.95727
796.0	0.95701
796.2	0.95704
796.4	0.95739
796.6	0.95727
796.8	0.95739
797.0	0.9579
797.2	0.95867
797.4	0.95973
797.6	0.95977
797.8	0.96098
798.0	0.96195
798.2	0.96285
798.4	0.96339
798.6	0.96401
798.8	0.96445
799.0	0.96476
799.2	0.96536
799.4	0.96532
799.6	0.96487
799.8	0.96514
800.0	0.96471
800.2	0.96421
800.4	0.96388
800.6	0.96323
800.8	0.96236
801.0	0.96142
801.2	0.96029
801.4	0.95989
801.6	0.95906
801.8	0.95823
802.0	0.95757
802.2	0.95786
802.4	0.95704
802.6	0.95721
802.8	0.95756
803.0	0.95756
803.2	0.95728
803.4	0.95776
803.6	0.95832
803.8	0.95946
804.0	0.96026
804.2	0.96102
804.4	0.9623
804.6	0.96323
804.8	0.96389
805.0	0.96477
805.2	0.96573
805.4	0.96692
805.6	0.96679
805.8	0.96719
806.0	0.96785
806.2	0.96807
806.4	0.96782
806.6	0.96715
806.8	0.96639
807.0	0.96619
807.2	0.9652
807.4	0.96413
807.6	0.9635
807.8	0.96188
808.0	0.96101
808.2	0.96034
808.4	0.95945
808.6	0.95826
808.8	0.95792
809.0	0.957
809.2	0.95732
809.4	0.95682
809.6	0.95701
809.8	0.95753
810.0	0.95807
810.2	0.95782
810.4	0.95885
810.6	0.95947
810.8	0.96059
811.0	0.96147
811.2	0.96225
811.4	0.96261
811.6	0.96407
811.8	0.96479
812.0	0.96484
812.2	0.96548
812.4	0.96577
812.6	0.96588
812.8	0.96615
813.0	0.96599
813.2	0.96532
813.4	0.96453
813.6	0.96443
813.8	0.96322
814.0	0.96276
814.2	0.96155
814.4	0.96076
814.6	0.95984
814.8	0.959
815.0	0.9585
815.2	0.95769
815.4	0.95671
815.6	0.95669
815.8	0.95703
816.0	0.95595
816.2	0.95599
816.4	0.95667
816.6	0.95674
816.8	0.95719
817.0	0.95817
817.2	0.95861
817.4	0.95925
817.6	0.95993
817.8	0.96099
818.0	0.96187
818.2	0.96233
818.4	0.96258
818.6	0.96283
818.8	0.96306
819.0	0.96327
819.2	0.9641
819.4	0.96306
819.6	0.96343
819.8	0.96247
820.0	0.9625
820.2	0.96162
820.4	0.96059
820.6	0.9597
820.8	0.95909
821.0	0.95829
821.2	0.95726
821.4	0.95671
821.6	0.95598
821.8	0.95555
822.0	0.9554
822.2	0.95473
822.4	0.95456
822.6	0.95467
822.8	0.95516
823.0	0.9562
823.2	0.95592
823.4	0.95654
823.6	0.9573
823.8	0.95868
824.0	0.95953
824.2	0.96034
824.4	0.96207
824.6	0.96286
824.8	0.96309
825.0	0.96442
825.2	0.96492
825.4	0.96509
825.6	0.96561
825.8	0.96581
826.0	0.96581
826.2	0.96499
826.4	0.96562
826.6	0.96488
826.8	0.9643
827.0	0.9637
827.2	0.96273
827.4	0.96174
827.6	0.96086
827.8	0.96016
828.0	0.95904
828.2	0.95839
828.4	0.95758
828.6	0.95741
828.8	0.95735
829.0	0.95679
829.2	0.95689
829.4	0.95659
829.6	0.95704
829.8	0.95737
830.0	0.9574
830.2	0.95853
830.4	0.95901
830.6	0.96014
830.8	0.96106
831.0	0.96154
831.2	0.96293
831.4	0.9642
831.6	0.96466
831.8	0.9652
832.0	0.96574
832.2	0.9663
832.4	0.96666
832.6	0.96651
832.8	0.96635
833.0	0.96719
833.2	0.9666
833.4	0.9664
833.6	0.96559
833.8	0.96456
834.0	0.9636
834.2	0.96296
834.4	0.96251
834.6	0.96148
834.8	0.96031
835.0	0.95966
835.2	0.95884
835.4	0.95867
835.6	0.95839
835.8	0.95776
836.0	0.95765
836.2	0.95726
836.4	0.95744
836.6	0.95735
836.8	0.95798
837.0	0.9585
837.2	0.95912
837.4	0.96019
837.6	0.96076
837.8	0.96119
838.0	0.96242
838.2	0.96267
838.4	0.96386
838.6	0.96471
838.8	0.9651
839.0	0.96539
839.2	0.96584
839.4	0.96539
839.6	0.96557
839.8	0.96565
840.0	0.96551
840.2	0.96494
840.4	0.96434
840.6	0.96301
840.8	0.96266
841.0	0.9621
841.2	0.96078
841.4	0.96029
841.6	0.95924
841.8	0.9586
842.0	0.95743
842.2	0.95644
842.4	0.95604
842.6	0.95586
842.8	0.95541
843.0	0.95489
843.2	0.95515
843.4	0.95517
843.6	0.95537
843.8	0.9562
844.0	0.95656
844.2	0.95629
844.4	0.95688
844.6	0.95802
844.8	0.95908
845.0	0.9599
845.2	0.96063
845.4	0.96095
845.6	0.96181
845.8	0.96196
846.0	0.9624
846.2	0.96272
846.4	0.96309
846.6	0.96302
846.8	0.96326
847.0	0.96294
847.2	0.9625
847.4	0.96236
847.6	0.96158
847.8	0.96101
848.0	0.96007
848.2	0.95944
848.4	0.9589
848.6	0.95785
848.8	0.95696
849.0	0.95634
849.2	0.95611
849.4	0.95559
849.6	0.95493
849.8	0.95447
850.0	0.95484
850.2	0.95453
850.4	0.95506
850.6	0.95526
850.8	0.95538
851.0	0.95573
851.2	0.95657
851.4	0.95764
851.6	0.95832
851.8	0.95969
852.0	0.96009
852.2	0.9609
852.4	0.96212
852.6	0.96283
852.8	0.96318
853.0	0.96375
853.2	0.96493
853.4	0.96508
853.6	0.96525
853.8	0.96531
854.0	0.96542
854.2	0.96524
854.4	0.96515
854.6	0.96482
854.8	0.9646
855.0	0.96366
855.2	0.96239
855.4	0.96208
855.6	0.96206
855.8	0.96067
856.0	0.96027
856.2	0.95968
856.4	0.95898
856.6	0.95849
856.8	0.95784
857.0	0.95739
857.2	0.95718
857.4	0.95768
857.6	0.95802
857.8	0.95792
858.0	0.95784
858.2	0.95874
858.4	0.95958
858.6	0.9601
858.8	0.96064
859.0	0.96122
859.2	0.96271
859.4	0.96339
859.6	0.96424
859.8	0.96477
860.0	0.96553
860.2	0.96604
860.4	0.96658
860.6	0.96712
860.8	0.96713
861.0	0.96718
861.2	0.96717
861.4	0.96805
861.6	0.96718
861.8	0.96614
862.0	0.96619
862.2	0.96517
862.4	0.96461
862.6	0.96394
862.8	0.96346
863.0	0.96264
863.2	0.96141
863.4	0.96086
863.6	0.9604
863.8	0.95932
864.0	0.9586
864.2	0.95861
864.4	0.95837
864.6	0.95787
864.8	0.95785
865.0	0.95775
865.2	0.95797
865.4	0.95764
865.6	0.95868
865.8	0.95857
866.0	0.96002
866.2	0.96018
866.4	0.96065
866.6	0.96128
866.8	0.96192
867.0	0.96265
867.2	0.96314
867.4	0.96315
867.6	0.96385
867.8	0.96466
868.0	0.96548
868.2	0.96505
868.4	0.96546
868.6	0.96525
868.8	0.96491
869.0	0.96396
869.2	0.96382
869.4	0.96328
869.6	0.96233
869.8	0.96198
870.0	0.96076
870.2	0.95998
870.4	0.95978
870.6	0.9591
870.8	0.95891
871.0	0.95866
871.2	0.95802
871.4	0.95767
871.6	0.95764
871.8	0.95746
872.0	0.95735
872.2	0.9578
872.4	0.9585
872.6	0.95857
872.8	0.9587
873.0	0.95918
873.2	0.9596
873.4	0.96084
873.6	0.96168
873.8	0.96156
874.0	0.96231
874.2	0.96283
874.4	0.9635
874.6	0.96351
874.8	0.96409
875.0	0.96355
875.2	0.96416
875.4	0.96391
875.6	0.96412
875.8	0.96353
876.0	0.96312
876.2	0.96324
876.4	0.96205
876.6	0.96194
876.8	0.96118
877.0	0.96033
877.2	0.9601
877.4	0.95921
877.6	0.9583
877.8	0.95738
878.0	0.95693
878.2	0.95634
878.4	0.95592
878.6	0.95582
878.8	0.95536
879.0	0.95499
879.2	0.95496
879.4	0.95519
879.6	0.95541
879.8	0.95579
880.0	0.95614
880.2	0.95652
880.4	0.95712
880.6	0.95781
880.8	0.95901
881.0	0.95943
881.2	0.95996
881.4	0.96096
881.6	0.96183
881.8	0.9622
882.0	0.96282
882.2	0.96341
882.4	0.96431
882.6	0.96475
882.8	0.96479
883.0	0.96548
883.2	0.96539
883.4	0.96506
883.6	0.96491
883.8	0.96437
884.0	0.96413
884.2	0.96346
884.4	0.96335
884.6	0.96307
884.8	0.96229
885.0	0.9614
885.2	0.96072
885.4	0.96004
885.6	0.95951
885.8	0.95929
886.0	0.95809
886.2	0.9574
886.4	0.95746
886.6	0.95714
886.8	0.95684
887.0	0.95724
887.2	0.95744
887.4	0.95726
887.6	0.9574
887.8	0.95816
888.0	0.95827
888.2	0.95901
888.4	0.95984
888.6	0.96032
888.8	0.96083
889.0	0.96143
889.2	0.9623
889.4	0.96347
889.6	0.96397
889.8	0.96442
890.0	0.9648
890.2	0.96563
890.4	0.96601
890.6	0.96644
890.8	0.96652
891.0	0.96637
891.2	0.96634
891.4	0.96674
891.6	0.96674
891.8	0.96573
892.0	0.96561
892.2	0.96514
892.4	0.96469
892.6	0.96386
892.8	0.96336
893.0	0.96232
893.2	0.96167
893.4	0.96136
893.6	0.96028
893.8	0.96007
894.0	0.95933
894.2	0.95877
894.4	0.95875
894.6	0.95838
894.8	0.95821
895.0	0.95777
895.2	0.95779
895.4	0.95821
895.6	0.95838
895.8	0.9584
896.0	0.95895
896.2	0.959
896.4	0.95943
896.6	0.95977
896.8	0.96042
897.0	0.96127
897.2	0.96177
897.4	0.96225
897.6	0.96275
897.8	0.96355
898.0	0.96339
898.2	0.96379
898.4	0.96425
898.6	0.96399
898.8	0.96447
899.0	0.96449
899.2	0.964
899.4	0.96369
899.6	0.96339
899.8	0.96382
900.0	0.96277
900.2	0.96234
900.4	0.96166
900.6	0.96165
900.8	0.96074
901.0	0.96009
901.2	0.95983
901.4	0.95942
901.6	0.95846
901.8	0.95807
902.0	0.95787
902.2	0.95708
902.4	0.95687
902.6	0.95693
902.8	0.95701
903.0	0.95692
903.2	0.95698
903.4	0.95723
903.6	0.95762
903.8	0.95809
904.0	0.95788
904.2	0.95837
904.4	0.95946
904.6	0.95963
904.8	0.96025
905.0	0.96065
905.2	0.96108
905.4	0.9616
905.6	0.96198
905.8	0.96234
906.0	0.96244
906.2	0.96255
906.4	0.96293
906.6	0.96329
906.8	0.96287
907.0	0.9628
907.2	0.96249
907.4	0.96228
907.6	0.96231
907.8	0.96184
908.0	0.96092
908.2	0.96057
908.4	0.96044
908.6	0.95895
908.8	0.95879
909.0	0.95827
909.2	0.95754
909.4	0.95705
909.6	0.95637
909.8	0.95587
910.0	0.95558
910.2	0.95548
910.4	0.95548
910.6	0.95472
910.8	0.95467
911.0	0.95501
911.2	0.95547
911.4	0.95546
911.6	0.95576
911.8	0.95566
912.0	0.9563
912.2	0.95726
912.4	0.95759
912.6	0.958
912.8	0.95886
913.0	0.95946
913.2	0.9601
913.4	0.96099
913.6	0.96139
913.8	0.96208
914.0	0.96271
914.2	0.96328
914.4	0.9635
914.6	0.96396
914.8	0.96418
915.0	0.96449
915.2	0.96427
915.4	0.9642
915.6	0.96391
915.8	0.96378
916.0	0.96379
916.2	0.96361
916.4	0.96304
916.6	0.96248
916.8	0.96192
917.0	0.96104
917.2	0.9607
917.4	0.96019
917.6	0.95975
917.8	0.95926
918.0	0.95865
918.2	0.95858
918.4	0.95839
918.6	0.95796
918.8	0.95749
919.0	0.95782
919.2	0.95756
919.4	0.9576
919.6	0.95778
919.8	0.95807
920.0	0.9581
920.2	0.95899
920.4	0.95927
920.6	0.95973
920.8	0.96064
921.0	0.96125
921.2	0.96219
921.4	0.96234
921.6	0.96276
921.8	0.96344
922.0	0.96416
922.2	0.96437
922.4	0.96475
922.6	0.96543
922.8	0.96571
923.0	0.96556
923.2	0.96589
923.4	0.96555
923.6	0.9659
923.8	0.96553
924.0	0.96509
924.2	0.96466
924.4	0.96439
924.6	0.96365
924.8	0.96345
925.0	0.96313
925.2	0.96201
925.4	0.96145
925.6	0.96089
925.8	0.96024
926.0	0.95917
926.2	0.95883
926.4	0.9584
926.6	0.95784
926.8	0.95733
927.0	0.95651
927.2	0.95684
927.4	0.9562
927.6	0.95622
927.8	0.95578
928.0	0.95584
928.2	0.95627
928.4	0.95637
928.6	0.957
928.8	0.95682
929.0	0.95736
929.2	0.95796
929.4	0.95857
929.6	0.95977
929.8	0.96026
930.0	0.96037
930.2	0.96101
930.4	0.96132
930.6	0.96293
930.8	0.96203
931.0	0.96252
931.2	0.96389
931.4	0.96504
931.6	0.96282
931.8	0.96363
932.0	0.96453
932.2	0.96431
932.4	0.96343
932.6	0.96386
932.8	0.96326
933.0	0.96386
933.2	0.96255
933.4	0.96169
933.6	0.96174
933.8	0.96014
934.0	0.9609
934.2	0.95901
934.4	0.95748
934.6	0.95761
934.8	0.95737
935.0	0.95731
935.2	0.95602
935.4	0.95566
935.6	0.95522
935.8	0.95423
936.0	0.95458
936.2	0.95487
936.4	0.95459
936.6	0.95478
936.8	0.95486
937.0	0.95389
937.2	0.95496
937.4	0.95626
937.6	0.95565
937.8	0.95707
938.0	0.95636
938.2	0.95739
938.4	0.95858
938.6	0.95825
938.8	0.95928
939.0	0.96018
939.2	0.96048
939.4	0.96103
939.6	0.9619
939.8	0.96188
940.0	0.96233
940.2	0.96277
940.4	0.96267
940.6	0.96279
940.8	0.96276
941.0	0.9623
941.2	0.96263
941.4	0.96264
941.6	0.96164
941.8	0.96157
942.0	0.96117
942.2	0.96041
942.4	0.96125
942.6	0.95857
942.8	0.95876
943.0	0.95829
943.2	0.95764
943.4	0.9576
943.6	0.95661
943.8	0.95744
944.0	0.95516
944.2	0.95525
944.4	0.95455
944.6	0.95458
944.8	0.95454
945.0	0.95446
945.2	0.95491
945.4	0.95434
945.6	0.95474
945.8	0.95536
946.0	0.95461
946.2	0.9554
946.4	0.95616
946.6	0.95718
946.8	0.95742
947.0	0.95817
947.2	0.95907
947.4	0.95941
947.6	0.95996
947.8	0.96101
948.0	0.96061
948.2	0.96151
948.4	0.96199
948.6	0.96222
948.8	0.96332
949.0	0.96425
949.2	0.9636
949.4	0.96368
949.6	0.96375
949.8	0.96457
950.0	0.96332
950.2	0.96351
950.4	0.96348
950.6	0.96284
950.8	0.96285
951.0	0.96223
951.2	0.96163
951.4	0.9617
951.6	0.96057
951.8	0.96043
952.0	0.95971
952.2	0.95878
952.4	0.95885
952.6	0.95835
952.8	0.9577
953.0	0.95751
953.2	0.95728
953.4	0.95657
953.6	0.95679
953.8	0.95669
954.0	0.95713
954.2	0.95687
954.4	0.95672
954.6	0.95702
954.8	0.95756
955.0	0.95824
955.2	0.95805
955.4	0.95885
955.6	0.95905
955.8	0.95999
956.0	0.96082
956.2	0.9614
956.4	0.96199
956.6	0.96218
956.8	0.96305
957.0	0.96345
957.2	0.96462
957.4	0.96501
957.6	0.9655
957.8	0.96604
958.0	0.96623
958.2	0.96652
958.4	0.96695
958.6	0.96691
958.8	0.96697
959.0	0.967
959.2	0.96694
959.4	0.96654
959.6	0.96646
959.8	0.96598
960.0	0.96538
960.2	0.96525
960.4	0.96473
960.6	0.96435
960.8	0.96314
961.0	0.96297
961.2	0.96251
961.4	0.96191
961.6	0.9617
961.8	0.96124
962.0	0.96046
962.2	0.95989
962.4	0.95938
962.6	0.95865
962.8	0.95894
963.0	0.95936
963.2	0.95875
963.4	0.95876
963.6	0.95841
963.8	0.95845
964.0	0.95911
964.2	0.95958
964.4	0.95944
964.6	0.95996
964.8	0.96037
965.0	0.96045
965.2	0.96085
965.4	0.96177
965.6	0.96196
965.8	0.96253
966.0	0.96257
966.2	0.96295
966.4	0.96383
966.6	0.96438
966.8	0.96454
967.0	0.96443
967.2	0.9645
967.4	0.96524
967.6	0.96513
967.8	0.96467
968.0	0.96517
968.2	0.96446
968.4	0.96442
968.6	0.96358
968.8	0.96353
969.0	0.96313
969.2	0.96268
969.4	0.96237
969.6	0.96188
969.8	0.96107
970.0	0.96025
970.2	0.95979
970.4	0.95913
970.6	0.95844
970.8	0.9578
971.0	0.95724
971.2	0.95683
971.4	0.95638
971.6	0.95586
971.8	0.95547
972.0	0.95583
972.2	0.95584
972.4	0.95569
972.6	0.95574
972.8	0.95664
973.0	0.95557
973.2	0.95472
973.4	0.95494
973.6	0.95649
973.8	0.95605
974.0	0.9557
974.2	0.95591
974.4	0.95721
974.6	0.95612
974.8	0.95665
975.0	0.95817
975.2	0.95857
975.4	0.95903
975.6	0.96003
975.8	0.96093
976.0	0.96054
976.2	0.96142
976.4	0.96198
976.6	0.96116
976.8	0.96259
977.0	0.96286
977.2	0.96324
977.4	0.96345
977.6	0.96324
977.8	0.96331
978.0	0.96322
978.2	0.96274
978.4	0.96297
978.6	0.96226
978.8	0.96184
979.0	0.96134
979.2	0.96106
979.4	0.96106
979.6	0.95981
979.8	0.95931
980.0	0.95977
980.2	0.95912
980.4	0.95796
980.6	0.95744
980.8	0.95638
981.0	0.95525
981.2	0.95529
981.4	0.9557
981.6	0.95558
981.8	0.95498
982.0	0.95505
982.2	0.95577
982.4	0.95533
982.6	0.95543
982.8	0.95544
983.0	0.95562
983.2	0.95584
983.4	0.9563
983.6	0.95613
983.8	0.95715
984.0	0.95732
984.2	0.95816
984.4	0.95821
984.6	0.95802
984.8	0.95988
985.0	0.96124
985.2	0.96132
985.4	0.96201
985.6	0.96338
985.8	0.96305
986.0	0.96398
986.2	0.96474
986.4	0.965
986.6	0.965
986.8	0.96579
987.0	0.96614
987.2	0.96626
987.4	0.96561
987.6	0.96639
987.8	0.96645
988.0	0.96624
988.2	0.96585
988.4	0.96532
988.6	0.96418
988.8	0.9638
989.0	0.96437
989.2	0.96414
989.4	0.96281
989.6	0.96349
989.8	0.96346
990.0	0.96214
990.2	0.96125
990.4	0.96145
990.6	0.96049
990.8	0.96112
991.0	0.96006
991.2	0.95904
991.4	0.95911
991.6	0.95908
991.8	0.95914
992.0	0.95831
992.2	0.95833
992.4	0.95873
992.6	0.95825
992.8	0.95869
993.0	0.95943
993.2	0.96034
993.4	0.95968
993.6	0.96012
993.8	0.96106
994.0	0.96103
994.2	0.96186
994.4	0.96266
994.6	0.96336
994.8	0.96295
995.0	0.96398
995.2	0.96394
995.4	0.96436
995.6	0.96518
995.8	0.96649
996.0	0.96642
996.2	0.96641
996.4	0.96693
996.6	0.9675
996.8	0.96742
997.0	0.96708
997.2	0.96761
997.4	0.96737
997.6	0.96679
997.8	0.96682
998.0	0.96691
998.2	0.96673
998.4	0.96606
998.6	0.96489
998.8	0.96532
999.0	0.96509
999.2	0.96412
999.4	0.96397
999.6	0.96338
999.8	0.96208
1000.0	0.95961
1000.2	0.95477
1000.4	0.95404
1000.6	0.95305
1000.8	0.95304
1001.0	0.95287
1001.2	0.95258
1001.4	0.95182
1001.6	0.95188
1001.8	0.95185
1002.0	0.95096
1002.2	0.95161
1002.4	0.95177
1002.6	0.95179
1002.8	0.95193
1003.0	0.95216
1003.2	0.95237
1003.4	0.9526
1003.6	0.95375
1003.8	0.9535
1004.0	0.95384
1004.2	0.95492
1004.4	0.95496
1004.6	0.95486
1004.8	0.95618
1005.0	0.957
1005.2	0.95718
1005.4	0.9575
1005.6	0.95802
1005.8	0.9589
1006.0	0.95935
1006.2	0.9596
1006.4	0.95913
1006.6	0.96026
1006.8	0.96038
1007.0	0.95998
1007.2	0.95978
1007.4	0.9601
1007.6	0.95985
1007.8	0.95948
1008.0	0.95945
1008.2	0.9584
1008.4	0.95808
1008.6	0.95824
1008.8	0.95679
1009.0	0.95638
1009.2	0.95608
1009.4	0.95509
1009.6	0.95464
1009.8	0.95425
1010.0	0.9532
1010.2	0.9521
1010.4	0.9523
1010.6	0.95119
1010.8	0.95031
1011.0	0.95003
1011.2	0.94985
1011.4	0.94928
1011.6	0.94887
1011.8	0.94847
1012.0	0.94742
1012.2	0.94807
1012.4	0.94769
1012.6	0.94749
1012.8	0.94807
1013.0	0.94786
1013.2	0.94742
1013.4	0.9485
1013.6	0.94851
1013.8	0.94858
1014.0	0.94917
1014.2	0.95032
1014.4	0.95015
1014.6	0.95056
1014.8	0.95078
1015.0	0.95068
1015.2	0.95225
1015.4	0.95274
1015.6	0.95318
1015.8	0.95332
1016.0	0.95415
1016.2	0.954
1016.4	0.9551
1016.6	0.95507
1016.8	0.9553
1017.0	0.95567
1017.2	0.95544
1017.4	0.95552
1017.6	0.956
1017.8	0.9553
1018.0	0.95533
1018.2	0.95483
1018.4	0.95526
1018.6	0.95473
1018.8	0.95419
1019.0	0.95441
1019.2	0.9533
1019.4	0.95301
1019.6	0.95329
1019.8	0.9515
1020.0	0.95167
1020.2	0.9507
1020.4	0.95085
1020.6	0.95048
1020.8	0.94941
1021.0	0.94896
1021.2	0.9488
1021.4	0.94861
1021.6	0.94824
1021.8	0.94813
1022.0	0.94692
1022.2	0.94725
1022.4	0.94664
1022.6	0.94655
1022.8	0.94691
1023.0	0.94704
1023.2	0.94692
1023.4	0.94752
1023.6	0.94792
1023.8	0.94768
1024.0	0.94798
1024.2	0.94929
1024.4	0.94939
1024.6	0.95015
1024.8	0.95077
1025.0	0.9511
1025.2	0.95122
1025.4	0.95159
1025.6	0.95176
1025.8	0.95355
1026.0	0.9537
1026.2	0.9537
1026.4	0.9548
1026.6	0.95528
1026.8	0.95508
1027.0	0.95585
1027.2	0.95628
1027.4	0.95612
1027.6	0.95692
1027.8	0.95784
1028.0	0.95742
1028.2	0.95762
1028.4	0.95728
1028.6	0.95722
1028.8	0.95766
1029.0	0.95697
1029.2	0.95757
1029.4	0.95703
1029.6	0.95607
1029.8	0.95582
1030.0	0.95594
1030.2	0.95543
1030.4	0.9552
1030.6	0.95438
1030.8	0.95399
1031.0	0.95338
1031.2	0.95264
1031.4	0.9526
1031.6	0.95335
1031.8	0.95218
1032.0	0.95227
1032.2	0.95196
1032.4	0.95151
1032.6	0.9521
1032.8	0.9517
1033.0	0.9509
1033.2	0.95152
1033.4	0.95164
1033.6	0.95153
1033.8	0.95206
1034.0	0.95176
1034.2	0.95201
1034.4	0.95334
1034.6	0.954
1034.8	0.95348
1035.0	0.95475
1035.2	0.9544
1035.4	0.95507
1035.6	0.95577
1035.8	0.95622
1036.0	0.95717
1036.2	0.95746
1036.4	0.95732
1036.6	0.95805
1036.8	0.95893
1037.0	0.95916
1037.2	0.95993
1037.4	0.96036
1037.6	0.96034
1037.8	0.96124
1038.0	0.9599
1038.2	0.96117
1038.4	0.96166
1038.6	0.96185
1038.8	0.96195
1039.0	0.96097
1039.2	0.96085
1039.4	0.96115
1039.6	0.9602
1039.8	0.9601
1040.0	0.95987
1040.2	0.95954
1040.4	0.95859
1040.6	0.95875
1040.8	0.95788
1041.0	0.95781
1041.2	0.95679
1041.4	0.95654
1041.6	0.95605
1041.8	0.9549
1042.0	0.955
1042.2	0.95408
1042.4	0.95463
1042.6	0.95335
1042.8	0.95259
1043.0	0.95297
1043.2	0.95281
1043.4	0.95205
1043.6	0.95066
1043.8	0.95174
1044.0	0.95121
1044.2	0.95035
1044.4	0.95136
1044.6	0.9508
1044.8	0.95162
1045.0	0.95046
1045.2	0.95007
1045.4	0.95034
1045.6	0.95052
1045.8	0.95086
1046.0	0.95152
1046.2	0.95106
1046.4	0.95154
1046.6	0.95153
1046.8	0.95313
1047.0	0.95353
1047.2	0.9544
1047.4	0.9542
1047.6	0.95512
1047.8	0.95542
1048.0	0.95461
1048.2	0.9554
1048.4	0.95566
1048.6	0.95576
1048.8	0.95665
1049.0	0.95534
1049.2	0.95604
1049.4	0.95637
1049.6	0.9562
1049.8	0.95596
1050.0	0.95519
1050.2	0.9557
1050.4	0.9557
1050.6	0.9554
1050.8	0.95558
1051.0	0.95427
1051.2	0.95395
1051.4	0.95456
1051.6	0.95323
1051.8	0.95357
1052.0	0.95309
1052.2	0.95166
1052.4	0.95214
1052.6	0.95054
1052.8	0.95061
1053.0	0.95106
1053.2	0.95083
1053.4	0.95028
1053.6	0.95028
1053.8	0.94917
1054.0	0.95057
1054.2	0.94993
1054.4	0.94771
1054.6	0.9487
1054.8	0.94939
1055.0	0.94933
1055.2	0.94929
1055.4	0.94921
1055.6	0.94969
1055.8	0.94911
1056.0	0.95006
1056.2	0.95026
1056.4	0.95018
1056.6	0.95092
1056.8	0.95115
1057.0	0.95264
1057.2	0.95262
1057.4	0.95284
1057.6	0.95374
1057.8	0.95491
1058.0	0.95512
1058.2	0.95461
1058.4	0.95548
1058.6	0.95607
1058.8	0.95551
1059.0	0.95589
1059.2	0.9565
1059.4	0.95622
1059.6	0.95743
1059.8	0.95721
1060.0	0.95688
1060.2	0.95851
1060.4	0.95669
1060.6	0.95606
1060.8	0.95653
1061.0	0.9569
1061.2	0.95664
1061.4	0.95618
1061.6	0.95623
1061.8	0.95616
1062.0	0.95563
1062.2	0.95499
1062.4	0.95512
1062.6	0.95476
1062.8	0.95408
1063.0	0.95257
1063.2	0.95281
1063.4	0.95235
1063.6	0.95162
1063.8	0.95189
1064.0	0.95119
1064.2	0.95128
1064.4	0.95052
1064.6	0.94855
1064.8	0.94961
1065.0	0.94881
1065.2	0.94849
1065.4	0.94825
1065.6	0.94862
1065.8	0.94814
1066.0	0.94896
1066.2	0.94876
1066.4	0.94897
1066.6	0.94812
1066.8	0.94956
1067.0	0.94999
1067.2	0.95022
1067.4	0.94905
1067.6	0.94984
1067.8	0.95225
1068.0	0.95104
1068.2	0.95155
1068.4	0.95328
1068.6	0.95225
1068.8	0.95306
1069.0	0.95389
1069.2	0.95331
1069.4	0.95526
1069.6	0.9552
1069.8	0.9556
1070.0	0.95617
1070.2	0.95762
1070.4	0.95666
1070.6	0.95724
1070.8	0.95833
1071.0	0.95699
1071.2	0.95671
1071.4	0.95799
1071.6	0.95944
1071.8	0.95779
1072.0	0.95687
1072.2	0.95841
1072.4	0.95715
1072.6	0.95745
1072.8	0.95722
1073.0	0.95657
1073.2	0.9573
1073.4	0.95658
1073.6	0.95575
1073.8	0.9553
1074.0	0.9555
1074.2	0.9556
1074.4	0.95349
1074.6	0.95514
1074.8	0.95468
1075.0	0.95144
1075.2	0.95377
1075.4	0.95283
1075.6	0.95268
1075.8	0.95261
1076.0	0.95151
1076.2	0.95108
1076.4	0.95161
1076.6	0.95051
1076.8	0.95129
1077.0	0.95192
1077.2	0.95297
1077.4	0.95239
1077.6	0.95302
1077.8	0.9524
1078.0	0.95161
1078.2	0.95224
1078.4	0.95275
1078.6	0.95307
1078.8	0.95227
1079.0	0.95171
1079.2	0.95387
1079.4	0.95339
1079.6	0.95489
1079.8	0.95448
1080.0	0.95539
1080.2	0.95571
1080.4	0.95752
1080.6	0.9572
1080.8	0.95751
1081.0	0.95785
1081.2	0.95832
1081.4	0.95919
1081.6	0.9582
1081.8	0.95839
1082.0	0.95989
1082.2	0.95978
1082.4	0.95972
1082.6	0.96109
1082.8	0.96016
1083.0	0.96029
1083.2	0.96065
1083.4	0.96061
1083.6	0.96105
1083.8	0.95855
1084.0	0.95872
1084.2	0.96025
1084.4	0.95906
1084.6	0.95768
1084.8	0.95804
1085.0	0.9575
1085.2	0.95586
1085.4	0.95757
1085.6	0.95739
1085.8	0.95639
1086.0	0.95642
1086.2	0.95649
1086.4	0.95532
1086.6	0.95522
1086.8	0.95661
1087.0	0.95382
1087.2	0.95331
1087.4	0.95506
1087.6	0.95243
1087.8	0.95408
1088.0	0.95446
1088.2	0.95239
1088.4	0.95093
1088.6	0.95178
1088.8	0.95333
1089.0	0.95196
1089.2	0.95338
1089.4	0.95172
1089.6	0.95223
1089.8	0.95321
1090.0	0.9537
1090.2	0.95186
1090.4	0.95397
1090.6	0.95208
1090.8	0.95493
1091.0	0.95574
1091.2	0.95723
1091.4	0.95491
1091.6	0.95708
1091.8	0.95792
1092.0	0.95902
1092.2	0.95829
1092.4	0.9586
1092.6	0.96062
1092.8	0.9593
1093.0	0.95985
1093.2	0.95993
1093.4	0.96084
1093.6	0.96115
1093.8	0.9597
1094.0	0.95957
1094.2	0.9594
1094.4	0.96125
1094.6	0.96071
1094.8	0.95772
1095.0	0.96111
1095.2	0.96041
1095.4	0.96059
1095.6	0.96146
1095.8	0.96032
1096.0	0.95925
1096.2	0.95985
1096.4	0.95819
1096.6	0.95925
1096.8	0.9566
1097.0	0.95669
1097.2	0.95808
1097.4	0.9571
1097.6	0.95628
1097.8	0.95553
1098.0	0.95415
1098.2	0.9528
1098.4	0.9546
1098.6	0.95295
1098.8	0.95332
1099.0	0.95197
1099.2	0.95219
1099.4	0.95041
1099.6	0.95315
1099.8	0.94943
1100.0	0.95097
1100.2	0.95181
1100.4	0.9508
1100.6	0.95062
1100.8	0.9518
1101.0	0.94999
1101.2	0.95103
1101.4	0.95048
1101.6	0.9505
1101.8	0.95076
1102.0	0.95039
1102.2	0.95302
1102.4	0.95131
1102.6	0.95193
1102.8	0.95068
1103.0	0.95406
1103.2	0.95445
1103.4	0.95461
1103.6	0.95284
1103.8	0.95444
1104.0	0.95389
1104.2	0.95722
1104.4	0.95483
1104.6	0.95755
1104.8	0.95475
1105.0	0.95689
1105.2	0.95723
1105.4	0.95895
1105.6	0.95645
1105.8	0.95698
1106.0	0.95997
1106.2	0.96023
1106.4	0.95818
1106.6	0.95899
1106.8	0.95977
1107.0	0.95891
1107.2	0.9576
1107.4	0.95902
1107.6	0.95712
1107.8	0.96028
1108.0	0.95957
1108.2	0.95772
1108.4	0.95722
1108.6	0.95713
1108.8	0.95544
1109.0	0.95579
1109.2	0.95518
1109.4	0.95598
1109.6	0.95565
1109.8	0.9562
1110.0	0.95427
1110.2	0.95444
1110.4	0.95421
1110.6	0.95247
1110.8	0.95295
1111.0	0.95003
1111.2	0.95254
1111.4	0.95119
1111.6	0.95275
1111.8	0.95005
1112.0	0.95363
1112.2	0.94953
1112.4	0.95017
1112.6	0.94759
1112.8	0.95349
1113.0	0.95117
1113.2	0.94819
1113.4	0.95021
1113.6	0.95302
1113.8	0.95129
1114.0	0.95255
1114.2	0.9516
1114.4	0.94999
1114.6	0.95093
1114.8	0.95034
1115.0	0.9527
1115.2	0.95156
1115.4	0.95329
1115.6	0.95119
1115.8	0.95558
1116.0	0.95559
1116.2	0.95623
1116.4	0.9525
1116.6	0.95831
1116.8	0.95774
1117.0	0.95497
1117.2	0.95797
1117.4	0.95571
1117.6	0.96038
1117.8	0.95687
1118.0	0.95853
1118.2	0.95935
1118.4	0.95995
1118.6	0.96048
1118.8	0.95762
1119.0	0.96318
1119.2	0.96055
1119.4	0.96052
1119.6	0.95875
1119.8	0.95906
1120.0	0.97512
1120.2	0.97475
1120.4	0.97437
1120.6	0.974
1120.8	0.97362
1121.0	0.97325
1121.2	0.97287
1121.4	0.9725
1121.6	0.97212
1121.8	0.97175
1122.0	0.97137
1122.2	0.971
1122.4	0.97063
1122.6	0.97025
1122.8	0.96988
1123.0	0.96951
1123.2	0.96913
1123.4	0.96876
1123.6	0.96839
1123.8	0.96801
1124.0	0.96764
1124.2	0.96727
1124.4	0.9669
1124.6	0.96652
1124.8	0.96615
1125.0	0.96579
1125.2	0.96608
1125.4	0.96637
1125.6	0.96667
1125.8	0.96696
1126.0	0.96725
1126.2	0.96755
1126.4	0.96784
1126.6	0.96813
1126.8	0.96842
1127.0	0.96872
1127.2	0.96901
1127.4	0.9693
1127.6	0.9696
1127.8	0.96989
1128.0	0.97019
1128.2	0.97048
1128.4	0.97077
1128.6	0.97107
1128.8	0.97136
1129.0	0.97166
1129.2	0.97195
1129.4	0.97224
1129.6	0.97254
1129.8	0.97283
1130.0	0.97311
1130.2	0.973
1130.4	0.97289
1130.6	0.97278
1130.8	0.97268
1131.0	0.97257
1131.2	0.97246
1131.4	0.97235
1131.6	0.97224
1131.8	0.97214
1132.0	0.97203
1132.2	0.97192
1132.4	0.97181
1132.6	0.97171
1132.8	0.9716
1133.0	0.97149
1133.2	0.97138
1133.4	0.97128
1133.6	0.97117
1133.8	0.97106
1134.0	0.97095
1134.2	0.97085
1134.4	0.97074
1134.6	0.97063
1134.8	0.97052
1135.0	0.97042
1135.2	0.97042
1135.4	0.97042
1135.6	0.97042
1135.8	0.97042
1136.0	0.97042
1136.2	0.97042
1136.4	0.97042
1136.6	0.97042
1136.8	0.97042
1137.0	0.97043
1137.2	0.97043
1137.4	0.97043
1137.6	0.97043
1137.8	0.97043
1138.0	0.97043
1138.2	0.97043
1138.4	0.97043
1138.6	0.97043
1138.8	0.97043
1139.0	0.97043
1139.2	0.97043
1139.4	0.97043
1139.6	0.97043
1139.8	0.97043
1140.0	0.97044
1140.2	0.97072
1140.4	0.971
1140.6	0.97129
1140.8	0.97157
1141.0	0.97185
1141.2	0.97213
1141.4	0.97241
1141.6	0.97269
1141.8	0.97297
1142.0	0.97325
1142.2	0.97353
1142.4	0.97381
1142.6	0.97409
1142.8	0.97438
1143.0	0.97466
1143.2	0.97494
1143.4	0.97522
1143.6	0.9755
1143.8	0.97578
1144.0	0.97606
1144.2	0.97635
1144.4	0.97663
1144.6	0.97691
1144.8	0.97719
1145.0	0.97745
1145.2	0.97706
1145.4	0.97667
1145.6	0.97628
1145.8	0.97588
1146.0	0.97549
1146.2	0.9751
1146.4	0.97471
1146.6	0.97432
1146.8	0.97393
1147.0	0.97354
1147.2	0.97316
1147.4	0.97277
1147.6	0.97238
1147.8	0.97199
1148.0	0.9716
1148.2	0.97121
1148.4	0.97082
1148.6	0.97043
1148.8	0.97004
1149.0	0.96966
1149.2	0.96927
1149.4	0.96888
1149.6	0.96849
1149.8	0.96811
1150.0	0.96774
1150.2	0.96787
1150.4	0.968
1150.6	0.96813
1150.8	0.96826
1151.0	0.96839
1151.2	0.96852
1151.4	0.96865
1151.6	0.96878
1151.8	0.96891
1152.0	0.96904
1152.2	0.96917
1152.4	0.9693
1152.6	0.96943
1152.8	0.96956
1153.0	0.96969
1153.2	0.96982
1153.4	0.96995
1153.6	0.97007
1153.8	0.9702
1154.0	0.97033
1154.2	0.97046
1154.4	0.97059
1154.6	0.97072
1154.8	0.97085
1155.0	0.97098
1155.2	0.97115
1155.4	0.97132
1155.6	0.97148
1155.8	0.97165
1156.0	0.97181
1156.2	0.97198
1156.4	0.97214
1156.6	0.97231
1156.8	0.97248
1157.0	0.97264
1157.2	0.97281
1157.4	0.97297
1157.6	0.97314
1157.8	0.97331
1158.0	0.97347
1158.2	0.97364
1158.4	0.9738
1158.6	0.97397
1158.8	0.97414
1159.0	0.9743
1159.2	0.97447
1159.4	0.97464
1159.6	0.9748
1159.8	0.97497
1160.0	0.97512
1160.2	0.9748
1160.4	0.97447
1160.6	0.97414
1160.8	0.97381
1161.0	0.97348
1161.2	0.97316
1161.4	0.97283
1161.6	0.9725
1161.8	0.97218
1162.0	0.97185
1162.2	0.97152
1162.4	0.97119
1162.6	0.97087
1162.8	0.97054
1163.0	0.97021
1163.2	0.96989
1163.4	0.96956
1163.6	0.96924
1163.8	0.96891
1164.0	0.96858
1164.2	0.96826
1164.4	0.96793
1164.6	0.96761
1164.8	0.96728
1165.0	0.96697
1165.2	0.96733
1165.4	0.9677
1165.6	0.96806
1165.8	0.96843
1166.0	0.9688
1166.2	0.96916
1166.4	0.96953
1166.6	0.9699
1166.8	0.97026
1167.0	0.97063
1167.2	0.971
1167.4	0.97137
1167.6	0.97173
1167.8	0.9721
1168.0	0.97247
1168.2	0.97284
1168.4	0.97321
1168.6	0.97357
1168.8	0.97394
1169.0	0.97431
1169.2	0.97468
1169.4	0.97505
1169.6	0.97542
1169.8	0.97579
1170.0	0.97615
1170.2	0.9761
1170.4	0.97605
1170.6	0.976
1170.8	0.97595
1171.0	0.9759
1171.2	0.97585
1171.4	0.9758
1171.6	0.97575
1171.8	0.9757
1172.0	0.97565
1172.2	0.9756
1172.4	0.97555
1172.6	0.9755
1172.8	0.97545
1173.0	0.9754
1173.2	0.97535
1173.4	0.9753
1173.6	0.97525
1173.8	0.9752
1174.0	0.97515
1174.2	0.9751
1174.4	0.97505
1174.6	0.975
1174.8	0.97495
1175.0	0.9749
1175.2	0.97477
1175.4	0.97465
1175.6	0.97452
1175.8	0.9744
1176.0	0.97427
1176.2	0.97414
1176.4	0.97402
1176.6	0.97389
1176.8	0.97377
1177.0	0.97364
1177.2	0.97352
1177.4	0.97339
1177.6	0.97326
1177.8	0.97314
1178.0	0.97301
1178.2	0.97289
1178.4	0.97276
1178.6	0.97264
1178.8	0.97251
1179.0	0.97239
1179.2	0.97226
1179.4	0.97213
1179.6	0.97201
1179.8	0.97188
1180.0	0.97177
1180.2	0.9721
1180.4	0.97243
1180.6	0.97275
1180.8	0.97308
1181.0	0.97341
1181.2	0.97374
1181.4	0.97407
1181.6	0.97439
1181.8	0.97472
1182.0	0.97505
1182.2	0.97538
1182.4	0.97571
1182.6	0.97604
1182.8	0.97637
1183.0	0.9767
1183.2	0.97702
1183.4	0.97735
1183.6	0.97768
1183.8	0.97801
1184.0	0.97834
1184.2	0.97867
1184.4	0.979
1184.6	0.97933
1184.8	0.97966
1185.0	0.97998
1185.2	0.97977
1185.4	0.97956
1185.6	0.97935
1185.8	0.97914
1186.0	0.97893
1186.2	0.97872
1186.4	0.9785
1186.6	0.97829
1186.8	0.97808
1187.0	0.97787
1187.2	0.97766
1187.4	0.97745
1187.6	0.97724
1187.8	0.97703
1188.0	0.97682
1188.2	0.97661
1188.4	0.9764
1188.6	0.97619
1188.8	0.97598
1189.0	0.97577
1189.2	0.97556
1189.4	0.97535
1189.6	0.97514
1189.8	0.97494
1190.0	0.97473
1190.2	0.97471
1190.4	0.97469
1190.6	0.97467
1190.8	0.97465
1191.0	0.97463
1191.2	0.97461
1191.4	0.97458
1191.6	0.97456
1191.8	0.97454
1192.0	0.97452
1192.2	0.9745
1192.4	0.97448
1192.6	0.97446
1192.8	0.97444
1193.0	0.97442
1193.2	0.9744
1193.4	0.97438
1193.6	0.97436
1193.8	0.97433
1194.0	0.97431
1194.2	0.97429
1194.4	0.97427
1194.6	0.97425
1194.8	0.97423
1195.0	0.97422
1195.2	0.97447
1195.4	0.97473
1195.6	0.97498
1195.8	0.97524
1196.0	0.97549
1196.2	0.97575
1196.4	0.976
1196.6	0.97626
1196.8	0.97651
1197.0	0.97677
1197.2	0.97702
1197.4	0.97728
1197.6	0.97753
1197.8	0.97779
1198.0	0.97805
1198.2	0.9783
1198.4	0.97856
1198.6	0.97881
1198.8	0.97907
1199.0	0.97932
1199.2	0.97958
1199.4	0.97984
1199.6	0.98009
1199.8	0.98035
1200.0	0.98058
1200.2	0.98026
1200.4	0.97994
1200.6	0.97962
1200.8	0.9793
1201.0	0.97898
1201.2	0.97866
1201.4	0.97834
1201.6	0.97801
1201.8	0.97769
1202.0	0.97737
1202.2	0.97705
1202.4	0.97673
1202.6	0.97641
1202.8	0.97609
1203.0	0.97577
1203.2	0.97546
1203.4	0.97514
1203.6	0.97482
1203.8	0.9745
1204.0	0.97418
1204.2	0.97386
1204.4	0.97354
1204.6	0.97322
1204.8	0.9729
1205.0	0.9726
1205.2	0.97261
1205.4	0.97263
1205.6	0.97264
1205.8	0.97266
1206.0	0.97267
1206.2	0.97268
1206.4	0.9727
1206.6	0.97271
1206.8	0.97273
1207.0	0.97274
1207.2	0.97276
1207.4	0.97277
1207.6	0.97278
1207.8	0.9728
1208.0	0.97281
1208.2	0.97283
1208.4	0.97284
1208.6	0.97285
1208.8	0.97287
1209.0	0.97288
1209.2	0.9729
1209.4	0.97291
1209.6	0.97293
1209.8	0.97294
1210.0	0.97296
1210.2	0.97322
1210.4	0.97347
1210.6	0.97373
1210.8	0.97399
1211.0	0.97425
1211.2	0.97451
1211.4	0.97476
1211.6	0.97502
1211.8	0.97528
1212.0	0.97554
1212.2	0.9758
1212.4	0.97606
1212.6	0.97631
1212.8	0.97657
1213.0	0.97683
1213.2	0.97709
1213.4	0.97735
1213.6	0.97761
1213.8	0.97787
1214.0	0.97813
1214.2	0.97838
1214.4	0.97864
1214.6	0.9789
1214.8	0.97916
1215.0	0.9794
1215.2	0.97913
1215.4	0.97887
1215.6	0.9786
1215.8	0.97834
1216.0	0.97807
1216.2	0.97781
1216.4	0.97754
1216.6	0.97728
1216.8	0.97701
1217.0	0.97675
1217.2	0.97648
1217.4	0.97622
1217.6	0.97595
1217.8	0.97569
1218.0	0.97542
1218.2	0.97516
1218.4	0.9749
1218.6	0.97463
1218.8	0.97437
1219.0	0.9741
1219.2	0.97384
1219.4	0.97358
1219.6	0.97331
1219.8	0.97305
1220.0	0.9728
1220.2	0.97285
1220.4	0.97291
1220.6	0.97297
1220.8	0.97302
1221.0	0.97308
1221.2	0.97314
1221.4	0.9732
1221.6	0.97325
1221.8	0.97331
1222.0	0.97337
1222.2	0.97342
1222.4	0.97348
1222.6	0.97354
1222.8	0.97359
1223.0	0.97365
1223.2	0.97371
1223.4	0.97376
1223.6	0.97382
1223.8	0.97388
1224.0	0.97394
1224.2	0.97399
1224.4	0.97405
1224.6	0.97411
1224.8	0.97416
1225.0	0.97423
1225.2	0.97454
1225.4	0.97485
1225.6	0.97516
1225.8	0.97546
1226.0	0.97577
1226.2	0.97608
1226.4	0.97639
1226.6	0.97669
1226.8	0.977
1227.0	0.97731
1227.2	0.97762
1227.4	0.97793
1227.6	0.97823
1227.8	0.97854
1228.0	0.97885
1228.2	0.97916
1228.4	0.97947
1228.6	0.97978
1228.8	0.98009
1229.0	0.9804
1229.2	0.98071
1229.4	0.98101
1229.6	0.98132
1229.8	0.98163
1230.0	0.98193
1230.2	0.98162
1230.4	0.98131
1230.6	0.981
1230.8	0.98069
1231.0	0.98038
1231.2	0.98007
1231.4	0.97976
1231.6	0.97946
1231.8	0.97915
1232.0	0.97884
1232.2	0.97853
1232.4	0.97822
1232.6	0.97791
1232.8	0.9776
1233.0	0.97729
1233.2	0.97699
1233.4	0.97668
1233.6	0.97637
1233.8	0.97606
1234.0	0.97575
1234.2	0.97545
1234.4	0.97514
1234.6	0.97483
1234.8	0.97452
1235.0	0.97423
1235.2	0.97432
1235.4	0.97441
1235.6	0.9745
1235.8	0.97459
1236.0	0.97469
1236.2	0.97478
1236.4	0.97487
1236.6	0.97496
1236.8	0.97505
1237.0	0.97514
1237.2	0.97523
1237.4	0.97532
1237.6	0.97541
1237.8	0.9755
1238.0	0.97559
1238.2	0.97568
1238.4	0.97577
1238.6	0.97586
1238.8	0.97595
1239.0	0.97604
1239.2	0.97614
1239.4	0.97623
1239.6	0.97632
1239.8	0.97641
1240.0	0.9765
1240.2	0.97685
1240.4	0.97719
1240.6	0.97753
1240.8	0.97787
1241.0	0.97822
1241.2	0.97856
1241.4	0.9789
1241.6	0.97925
1241.8	0.97959
1242.0	0.97994
1242.2	0.98028
1242.4	0.98062
1242.6	0.98097
1242.8	0.98131
1243.0	0.98166
1243.2	0.982
1243.4	0.98235
1243.6	0.98269
1243.8	0.98304
1244.0	0.98338
1244.2	0.98373
1244.4	0.98407
1244.6	0.98442
1244.8	0.98476
1245.0	0.9851
1245.2	0.98475
1245.4	0.98439
1245.6	0.98404
1245.8	0.98369
1246.0	0.98334
1246.2	0.98299
1246.4	0.98263
1246.6	0.98228
1246.8	0.98193
1247.0	0.98158
1247.2	0.98123
1247.4	0.98088
1247.6	0.98052
1247.8	0.98017
1248.0	0.97982
1248.2	0.97947
1248.4	0.97912
1248.6	0.97877
1248.8	0.97842
1249.0	0.97807
1249.2	0.97772
1249.4	0.97737
1249.6	0.97702
1249.8	0.97667
1250.0	0.97633
1250.2	0.97629
1250.4	0.97626
1250.6	0.97623
1250.8	0.9762
1251.0	0.97617
1251.2	0.97613
1251.4	0.9761
1251.6	0.97607
1251.8	0.97604
1252.0	0.976
1252.2	0.97597
1252.4	0.97594
1252.6	0.97591
1252.8	0.97588
1253.0	0.97584
1253.2	0.97581
1253.4	0.97578
1253.6	0.97575
1253.8	0.97572
1254.0	0.97568
1254.2	0.97565
1254.4	0.97562
1254.6	0.97559
1254.8	0.97556
1255.0	0.97553
1255.2	0.97586
1255.4	0.9762
1255.6	0.97653
1255.8	0.97686
1256.0	0.9772
1256.2	0.97753
1256.4	0.97787
1256.6	0.9782
1256.8	0.97854
1257.0	0.97888
1257.2	0.97921
1257.4	0.97955
1257.6	0.97988
1257.8	0.98022
1258.0	0.98055
1258.2	0.98089
1258.4	0.98123
1258.6	0.98156
1258.8	0.9819
1259.0	0.98224
1259.2	0.98257
1259.4	0.98291
1259.6	0.98325
1259.8	0.98358
1260.0	0.98391
1260.2	0.98365
1260.4	0.98338
1260.6	0.98312
1260.8	0.98285
1261.0	0.98259
1261.2	0.98232
1261.4	0.98206
1261.6	0.98179
1261.8	0.98153
1262.0	0.98126
1262.2	0.981
1262.4	0.98074
1262.6	0.98047
1262.8	0.98021
1263.0	0.97994
1263.2	0.97968
1263.4	0.97942
1263.6	0.97915
1263.8	0.97889
1264.0	0.97862
1264.2	0.97836
1264.4	0.9781
1264.6	0.97783
1264.8	0.97757
1265.0	0.97731
1265.2	0.97711
1265.4	0.97692
1265.6	0.97673
1265.8	0.97653
1266.0	0.97634
1266.2	0.97615
1266.4	0.97595
1266.6	0.97576
1266.8	0.97556
1267.0	0.97537
1267.2	0.97518
1267.4	0.97498
1267.6	0.97479
1267.8	0.9746
1268.0	0.9744
1268.2	0.97421
1268.4	0.97402
1268.6	0.97382
1268.8	0.97363
1269.0	0.97344
1269.2	0.97324
1269.4	0.97305
1269.6	0.97286
1269.8	0.97266
1270.0	0.97248
1270.2	0.97288
1270.4	0.97328
1270.6	0.97368
1270.8	0.97408
1271.0	0.97448
1271.2	0.97488
1271.4	0.97528
1271.6	0.97568
1271.8	0.97608
1272.0	0.97648
1272.2	0.97688
1272.4	0.97728
1272.6	0.97768
1272.8	0.97808
1273.0	0.97848
1273.2	0.97888
1273.4	0.97928
1273.6	0.97968
1273.8	0.98008
1274.0	0.98049
1274.2	0.98089
1274.4	0.98129
1274.6	0.98169
1274.8	0.98209
1275.0	0.98248
1275.2	0.98243
1275.4	0.98237
1275.6	0.98232
1275.8	0.98226
1276.0	0.9822
1276.2	0.98215
1276.4	0.98209
1276.6	0.98204
1276.8	0.98198
1277.0	0.98192
1277.2	0.98187
1277.4	0.98181
1277.6	0.98176
1277.8	0.9817
1278.0	0.98165
1278.2	0.98159
1278.4	0.98153
1278.6	0.98148
1278.8	0.98142
1279.0	0.98137
1279.2	0.98131
1279.4	0.98125
1279.6	0.9812
1279.8	0.98114
1280.0	0.98108
1280.2	0.98085
1280.4	0.98062
1280.6	0.98039
1280.8	0.98015
1281.0	0.97992
1281.2	0.97969
1281.4	0.97946
1281.6	0.97923
1281.8	0.979
1282.0	0.97877
1282.2	0.97854
1282.4	0.9783
1282.6	0.97807
1282.8	0.97784
1283.0	0.97761
1283.2	0.97738
1283.4	0.97715
1283.6	0.97692
1283.8	0.97669
1284.0	0.97646
1284.2	0.97623
1284.4	0.976
1284.6	0.97577
1284.8	0.97554
1285.0	0.97531
1285.2	0.97557
1285.4	0.97583
1285.6	0.97609
1285.8	0.97634
1286.0	0.9766
1286.2	0.97686
1286.4	0.97712
1286.6	0.97738
1286.8	0.97763
1287.0	0.97789
1287.2	0.97815
1287.4	0.97841
1287.6	0.97867
1287.8	0.97893
1288.0	0.97918
1288.2	0.97944
1288.4	0.9797
1288.6	0.97996
1288.8	0.98022
1289.0	0.98048
1289.2	0.98074
1289.4	0.981
1289.6	0.98126
1289.8	0.98151
1290.0	0.98177
1290.2	0.98189
1290.4	0.982
1290.6	0.98211
1290.8	0.98223
1291.0	0.98234
1291.2	0.98246
1291.4	0.98257
1291.6	0.98269
1291.8	0.9828
1292.0	0.98292
1292.2	0.98303
1292.4	0.98315
1292.6	0.98326
1292.8	0.98338
1293.0	0.9835
1293.2	0.98361
1293.4	0.98373
1293.6	0.98384
1293.8	0.98396
1294.0	0.98407
1294.2	0.98419
1294.4	0.9843
1294.6	0.98442
1294.8	0.98453
1295.0	0.98463
1295.2	0.9843
1295.4	0.98397
1295.6	0.98364
1295.8	0.98331
1296.0	0.98298
1296.2	0.98265
1296.4	0.98232
1296.6	0.98199
1296.8	0.98165
1297.0	0.98132
1297.2	0.98099
1297.4	0.98066
1297.6	0.98033
1297.8	0.98
1298.0	0.97967
1298.2	0.97934
1298.4	0.97901
1298.6	0.97868
1298.8	0.97836
1299.0	0.97803
1299.2	0.9777
1299.4	0.97737
1299.6	0.97704
1299.8	0.97671
1300.0	0.9764
1300.2	0.97648
1300.4	0.97656
1300.6	0.97664
1300.8	0.97672
1301.0	0.9768
1301.2	0.97688
1301.4	0.97696
1301.6	0.97704
1301.8	0.97712
1302.0	0.97721
1302.2	0.97729
1302.4	0.97737
1302.6	0.97745
1302.8	0.97753
1303.0	0.97761
1303.2	0.97769
1303.4	0.97777
1303.6	0.97785
1303.8	0.97793
1304.0	0.97801
1304.2	0.97809
1304.4	0.97818
1304.6	0.97826
1304.8	0.97834
1305.0	0.97842
1305.2	0.97869
1305.4	0.97895
1305.6	0.97922
1305.8	0.97949
1306.0	0.97975
1306.2	0.98002
1306.4	0.98029
1306.6	0.98055
1306.8	0.98082
1307.0	0.98109
1307.2	0.98135
1307.4	0.98162
1307.6	0.98189
1307.8	0.98215
1308.0	0.98242
1308.2	0.98269
1308.4	0.98296
1308.6	0.98322
1308.8	0.98349
1309.0	0.98376
1309.2	0.98403
1309.4	0.98429
1309.6	0.98456
1309.8	0.98483
1310.0	0.98509
1310.2	0.98487
1310.4	0.98464
1310.6	0.98441
1310.8	0.98419
1311.0	0.98396
1311.2	0.98374
1311.4	0.98351
1311.6	0.98329
1311.8	0.98306
1312.0	0.98284
1312.2	0.98261
1312.4	0.98239
1312.6	0.98216
1312.8	0.98194
1313.0	0.98171
1313.2	0.98149
1313.4	0.98126
1313.6	0.98104
1313.8	0.98081
1314.0	0.98059
1314.2	0.98036
1314.4	0.98014
1314.6	0.97991
1314.8	0.97969
1315.0	0.97947
1315.2	0.9793
1315.4	0.97913
1315.6	0.97895
1315.8	0.97878
1316.0	0.97861
1316.2	0.97844
1316.4	0.97827
1316.6	0.9781
1316.8	0.97793
1317.0	0.97776
1317.2	0.97759
1317.4	0.97742
1317.6	0.97725
1317.8	0.97708
1318.0	0.97691
1318.2	0.97673
1318.4	0.97656
1318.6	0.97639
1318.8	0.97622
1319.0	0.97605
1319.2	0.97588
1319.4	0.97571
1319.6	0.97554
1319.8	0.97537
1320.0	0.97522
1320.2	0.97554
1320.4	0.97585
1320.6	0.97616
1320.8	0.97647
1321.0	0.97679
1321.2	0.9771
1321.4	0.97741
1321.6	0.97773
1321.8	0.97804
1322.0	0.97836
1322.2	0.97867
1322.4	0.97898
1322.6	0.9793
1322.8	0.97961
1323.0	0.97993
1323.2	0.98024
1323.4	0.98055
1323.6	0.98087
1323.8	0.98118
1324.0	0.9815
1324.2	0.98181
1324.4	0.98213
1324.6	0.98244
1324.8	0.98276
1325.0	0.98306
1325.2	0.98304
1325.4	0.98302
1325.6	0.983
1325.8	0.98298
1326.0	0.98295
1326.2	0.98293
1326.4	0.98291
1326.6	0.98289
1326.8	0.98287
1327.0	0.98285
1327.2	0.98283
1327.4	0.98281
1327.6	0.98279
1327.8	0.98277
1328.0	0.98275
1328.2	0.98273
1328.4	0.9827
1328.6	0.98268
1328.8	0.98266
1329.0	0.98264
1329.2	0.98262
1329.4	0.9826
1329.6	0.98258
1329.8	0.98256
1330.0	0.98253
1330.2	0.9822
1330.4	0.98186
1330.6	0.98152
1330.8	0.98119
1331.0	0.98085
1331.2	0.98051
1331.4	0.98018
1331.6	0.97984
1331.8	0.9795
1332.0	0.97917
1332.2	0.97883
1332.4	0.97849
1332.6	0.97816
1332.8	0.97782
1333.0	0.97749
1333.2	0.97715
1333.4	0.97682
1333.6	0.97648
1333.8	0.97615
1334.0	0.97581
1334.2	0.97548
1334.4	0.97514
1334.6	0.97481
1334.8	0.97447
1335.0	0.97414
1335.2	0.9743
1335.4	0.97445
1335.6	0.97461
1335.8	0.97476
1336.0	0.97491
1336.2	0.97507
1336.4	0.97522
1336.6	0.97537
1336.8	0.97553
1337.0	0.97568
1337.2	0.97584
1337.4	0.97599
1337.6	0.97614
1337.8	0.9763
1338.0	0.97645
1338.2	0.97661
1338.4	0.97676
1338.6	0.97691
1338.8	0.97707
1339.0	0.97722
1339.2	0.97738
1339.4	0.97753
1339.6	0.97768
1339.8	0.97784
1340.0	0.97799
1340.2	0.97821
1340.4	0.97842
1340.6	0.97863
1340.8	0.97885
1341.0	0.97906
1341.2	0.97927
1341.4	0.97949
1341.6	0.9797
1341.8	0.97991
1342.0	0.98013
1342.2	0.98034
1342.4	0.98055
1342.6	0.98077
1342.8	0.98098
1343.0	0.98119
1343.2	0.98141
1343.4	0.98162
1343.6	0.98184
1343.8	0.98205
1344.0	0.98226
1344.2	0.98248
1344.4	0.98269
1344.6	0.98291
1344.8	0.98312
1345.0	0.98332
1345.2	0.98312
1345.4	0.98291
1345.6	0.98271
1345.8	0.98251
1346.0	0.98231
1346.2	0.98211
1346.4	0.98191
1346.6	0.9817
1346.8	0.9815
1347.0	0.9813
1347.2	0.9811
1347.4	0.9809
1347.6	0.9807
1347.8	0.9805
1348.0	0.98029
1348.2	0.98009
1348.4	0.97989
1348.6	0.97969
1348.8	0.97949
1349.0	0.97929
1349.2	0.97909
1349.4	0.97889
1349.6	0.97868
1349.8	0.97848
1350.0	0.97829
1350.2	0.97899
1350.4	0.97968
1350.6	0.98038
1350.8	0.98108
1351.0	0.98178
1351.2	0.98248
1351.4	0.98318
1351.6	0.98389
1351.8	0.98459
1352.0	0.98529
1352.2	0.98599
1352.4	0.9867
1352.6	0.9874
1352.8	0.98811
1353.0	0.98881
1353.2	0.98952
1353.4	0.99022
1353.6	0.99093
1353.8	0.99164
1354.0	0.99234
1354.2	0.99305
1354.4	0.99376
1354.6	0.99447
1354.8	0.99518
1355.0	0.99585
1355.2	0.99492
1355.4	0.99399
1355.6	0.99306
1355.8	0.99213
1356.0	0.9912
1356.2	0.99027
1356.4	0.98935
1356.6	0.98842
1356.8	0.9875
1357.0	0.98657
1357.2	0.98565
1357.4	0.98473
1357.6	0.98381
1357.8	0.98289
1358.0	0.98197
1358.2	0.98105
1358.4	0.98013
1358.6	0.97922
1358.8	0.9783
1359.0	0.97739
1359.2	0.97647
1359.4	0.97556
1359.6	0.97465
1359.8	0.97373
1360.0	0.97284
1360.2	0.97366
1360.4	0.97449
1360.6	0.97531
1360.8	0.97613
1361.0	0.97696
1361.2	0.97778
1361.4	0.97861
1361.6	0.97944
1361.8	0.98027
1362.0	0.9811
1362.2	0.98192
1362.4	0.98275
1362.6	0.98359
1362.8	0.98442
1363.0	0.98525
1363.2	0.98608
1363.4	0.98692
1363.6	0.98775
1363.8	0.98858
1364.0	0.98942
1364.2	0.99026
1364.4	0.99109
1364.6	0.99193
1364.8	0.99277
1365.0	0.99348
1365.2	0.99116
1365.4	0.98883
1365.6	0.98652
1365.8	0.98421
1366.0	0.9819
1366.2	0.9796
1366.4	0.97731
1366.6	0.97502
1366.8	0.97273
1367.0	0.97045
1367.2	0.96818
1367.4	0.96591
1367.6	0.96365
1367.8	0.96139
1368.0	0.95914
1368.2	0.95689
1368.4	0.95465
1368.6	0.95241
1368.8	0.95018
1369.0	0.94796
1369.2	0.94574
1369.4	0.94352
1369.6	0.94131
1369.8	0.93911
1370.0	0.93704
1370.2	0.93857
1370.4	0.94011
1370.6	0.94164
1370.8	0.94318
1371.0	0.94473
1371.2	0.94627
1371.4	0.94782
1371.6	0.94937
1371.8	0.95092
1372.0	0.95248
1372.2	0.95404
1372.4	0.9556
1372.6	0.95716
1372.8	0.95873
1373.0	0.9603
1373.2	0.96187
1373.4	0.96344
1373.6	0.96502
1373.8	0.9666
1374.0	0.96818
1374.2	0.96976
1374.4	0.97135
1374.6	0.97294
1374.8	0.97453
1375.0	0.97618
1375.2	0.97921
1375.4	0.98226
1375.6	0.98532
1375.8	0.98838
1376.0	0.99146
1376.2	0.99454
1376.4	0.99763
1376.6	1.00074
1376.8	1.00385
1377.0	1.00698
1377.2	1.01011
1377.4	1.01325
1377.6	1.0164
1377.8	1.01957
1378.0	1.02274
1378.2	1.02592
1378.4	1.02911
1378.6	1.03231
1378.8	1.03553
1379.0	1.03875
1379.2	1.04198
1379.4	1.04522
1379.6	1.04847
1379.8	1.05174
1380.0	1.05475
1380.2	1.05162
1380.4	1.0485
1380.6	1.04539
1380.8	1.04229
1381.0	1.03919
1381.2	1.03611
1381.4	1.03304
1381.6	1.02997
1381.8	1.02691
1382.0	1.02387
1382.2	1.02083
1382.4	1.0178
1382.6	1.01478
1382.8	1.01177
1383.0	1.00877
1383.2	1.00577
1383.4	1.00279
1383.6	0.99981
1383.8	0.99685
1384.0	0.99389
1384.2	0.99094
1384.4	0.988
1384.6	0.98507
1384.8	0.98214
1385.0	0.97935
1385.2	0.9791
1385.4	0.97885
1385.6	0.9786
1385.8	0.97835
1386.0	0.9781
1386.2	0.97785
1386.4	0.9776
1386.6	0.97735
1386.8	0.9771
1387.0	0.97685
1387.2	0.9766
1387.4	0.97635
1387.6	0.9761
1387.8	0.97585
1388.0	0.9756
1388.2	0.97535
1388.4	0.9751
1388.6	0.97485
1388.8	0.9746
1389.0	0.97435
1389.2	0.9741
1389.4	0.97385
1389.6	0.9736
1389.8	0.97335
1390.0	0.97311
1390.2	0.97315
1390.4	0.9732
1390.6	0.97324
1390.8	0.97329
1391.0	0.97334
1391.2	0.97338
1391.4	0.97343
1391.6	0.97347
1391.8	0.97352
1392.0	0.97356
1392.2	0.97361
1392.4	0.97365
1392.6	0.9737
1392.8	0.97374
1393.0	0.97379
1393.2	0.97383
1393.4	0.97388
1393.6	0.97393
1393.8	0.97397
1394.0	0.97402
1394.2	0.97406
1394.4	0.97411
1394.6	0.97415
1394.8	0.9742
1395.0	0.97423
1395.2	0.97338
1395.4	0.97252
1395.6	0.97166
1395.8	0.9708
1396.0	0.96995
1396.2	0.96909
1396.4	0.96824
1396.6	0.96739
1396.8	0.96654
1397.0	0.96568
1397.2	0.96483
1397.4	0.96398
1397.6	0.96313
1397.8	0.96228
1398.0	0.96144
1398.2	0.96059
1398.4	0.95974
1398.6	0.9589
1398.8	0.95805
1399.0	0.95721
1399.2	0.95637
1399.4	0.95552
1399.6	0.95468
1399.8	0.95384
1400.0	0.95302
1400.2	0.95403
1400.4	0.95504
1400.6	0.95605
1400.8	0.95706
1401.0	0.95808
1401.2	0.95909
1401.4	0.96011
1401.6	0.96113
1401.8	0.96214
1402.0	0.96316
1402.2	0.96419
1402.4	0.96521
1402.6	0.96623
1402.8	0.96725
1403.0	0.96828
1403.2	0.9693
1403.4	0.97033
1403.6	0.97136
1403.8	0.97239
1404.0	0.97342
1404.2	0.97445
1404.4	0.97548
1404.6	0.97652
1404.8	0.97755
1405.0	0.97854
1405.2	0.97821
1405.4	0.97788
1405.6	0.97755
1405.8	0.97722
1406.0	0.97689
1406.2	0.97656
1406.4	0.97623
1406.6	0.9759
1406.8	0.97557
1407.0	0.97524
1407.2	0.97491
1407.4	0.97458
1407.6	0.97425
1407.8	0.97393
1408.0	0.9736
1408.2	0.97327
1408.4	0.97294
1408.6	0.97261
1408.8	0.97228
1409.0	0.97195
1409.2	0.97163
1409.4	0.9713
1409.6	0.97097
1409.8	0.97064
1410.0	0.97032
1410.2	0.97039
1410.4	0.97047
1410.6	0.97054
1410.8	0.97061
1411.0	0.97068
1411.2	0.97075
1411.4	0.97082
1411.6	0.97089
1411.8	0.97096
1412.0	0.97103
1412.2	0.9711
1412.4	0.97117
1412.6	0.97124
1412.8	0.97131
1413.0	0.97138
1413.2	0.97145
1413.4	0.97152
1413.6	0.97159
1413.8	0.97166
1414.0	0.97173
1414.2	0.97181
1414.4	0.97188
1414.6	0.97195
1414.8	0.97202
1415.0	0.9721
1415.2	0.97252
1415.4	0.97294
1415.6	0.97337
1415.8	0.97379
1416.0	0.97422
1416.2	0.97464
1416.4	0.97507
1416.6	0.97549
1416.8	0.97592
1417.0	0.97635
1417.2	0.97677
1417.4	0.9772
1417.6	0.97762
1417.8	0.97805
1418.0	0.97848
1418.2	0.97891
1418.4	0.97933
1418.6	0.97976
1418.8	0.98019
1419.0	0.98062
1419.2	0.98104
1419.4	0.98147
1419.6	0.9819
1419.8	0.98233
1420.0	0.98275
1420.2	0.98261
1420.4	0.98247
1420.6	0.98233
1420.8	0.9822
1421.0	0.98206
1421.2	0.98192
1421.4	0.98179
1421.6	0.98165
1421.8	0.98151
1422.0	0.98137
1422.2	0.98124
1422.4	0.9811
1422.6	0.98096
1422.8	0.98083
1423.0	0.98069
1423.2	0.98055
1423.4	0.98042
1423.6	0.98028
1423.8	0.98014
1424.0	0.98001
1424.2	0.97987
1424.4	0.97973
1424.6	0.97959
1424.8	0.97946
1425.0	0.97932
1425.2	0.97894
1425.4	0.97857
1425.6	0.97819
1425.8	0.97782
1426.0	0.97744
1426.2	0.97707
1426.4	0.9767
1426.6	0.97632
1426.8	0.97595
1427.0	0.97557
1427.2	0.9752
1427.4	0.97483
1427.6	0.97446
1427.8	0.97408
1428.0	0.97371
1428.2	0.97334
1428.4	0.97296
1428.6	0.97259
1428.8	0.97222
1429.0	0.97185
1429.2	0.97148
1429.4	0.9711
1429.6	0.97073
1429.8	0.97036
1430.0	0.97
1430.2	0.97006
1430.4	0.97012
1430.6	0.97017
1430.8	0.97023
1431.0	0.97029
1431.2	0.97035
1431.4	0.9704
1431.6	0.97046
1431.8	0.97052
1432.0	0.97057
1432.2	0.97063
1432.4	0.97069
1432.6	0.97075
1432.8	0.9708
1433.0	0.97086
1433.2	0.97092
1433.4	0.97097
1433.6	0.97103
1433.8	0.97109
1434.0	0.97114
1434.2	0.9712
1434.4	0.97126
1434.6	0.97132
1434.8	0.97137
1435.0	0.97144
1435.2	0.97179
1435.4	0.97214
1435.6	0.97248
1435.8	0.97283
1436.0	0.97318
1436.2	0.97353
1436.4	0.97387
1436.6	0.97422
1436.8	0.97457
1437.0	0.97492
1437.2	0.97526
1437.4	0.97561
1437.6	0.97596
1437.8	0.97631
1438.0	0.97666
1438.2	0.97701
1438.4	0.97735
1438.6	0.9777
1438.8	0.97805
1439.0	0.9784
1439.2	0.97875
1439.4	0.9791
1439.6	0.97945
1439.8	0.9798
1440.0	0.98014
1440.2	0.98002
1440.4	0.97989
1440.6	0.97977
1440.8	0.97964
1441.0	0.97952
1441.2	0.9794
1441.4	0.97927
1441.6	0.97915
1441.8	0.97903
1442.0	0.9789
1442.2	0.97878
1442.4	0.97866
1442.6	0.97853
1442.8	0.97841
1443.0	0.97829
1443.2	0.97816
1443.4	0.97804
1443.6	0.97792
1443.8	0.97779
1444.0	0.97767
1444.2	0.97755
1444.4	0.97742
1444.6	0.9773
1444.8	0.97718
1445.0	0.97705
1445.2	0.97684
1445.4	0.97663
1445.6	0.97642
1445.8	0.9762
1446.0	0.97599
1446.2	0.97578
1446.4	0.97557
1446.6	0.97536
1446.8	0.97515
1447.0	0.97493
1447.2	0.97472
1447.4	0.97451
1447.6	0.9743
1447.8	0.97409
1448.0	0.97388
1448.2	0.97366
1448.4	0.97345
1448.6	0.97324
1448.8	0.97303
1449.0	0.97282
1449.2	0.97261
1449.4	0.9724
1449.6	0.97218
1449.8	0.97197
1450.0	0.97177
1450.2	0.97168
1450.4	0.9716
1450.6	0.97151
1450.8	0.97143
1451.0	0.97135
1451.2	0.97126
1451.4	0.97118
1451.6	0.97109
1451.8	0.97101
1452.0	0.97092
1452.2	0.97084
1452.4	0.97075
1452.6	0.97067
1452.8	0.97059
1453.0	0.9705
1453.2	0.97042
1453.4	0.97033
1453.6	0.97025
1453.8	0.97016
1454.0	0.97008
1454.2	0.96999
1454.4	0.96991
1454.6	0.96983
1454.8	0.96974
1455.0	0.96966
1455.2	0.96982
1455.4	0.96997
1455.6	0.97013
1455.8	0.97028
1456.0	0.97044
1456.2	0.97059
1456.4	0.97075
1456.6	0.9709
1456.8	0.97106
1457.0	0.97121
1457.2	0.97137
1457.4	0.97152
1457.6	0.97168
1457.8	0.97183
1458.0	0.97199
1458.2	0.97214
1458.4	0.9723
1458.6	0.97245
1458.8	0.97261
1459.0	0.97276
1459.2	0.97292
1459.4	0.97307
1459.6	0.97323
1459.8	0.97339
1460.0	0.97354
1460.2	0.97362
1460.4	0.97371
1460.6	0.97379
1460.8	0.97388
1461.0	0.97396
1461.2	0.97405
1461.4	0.97413
1461.6	0.97422
1461.8	0.9743
1462.0	0.97439
1462.2	0.97447
1462.4	0.97456
1462.6	0.97465
1462.8	0.97473
1463.0	0.97482
1463.2	0.9749
1463.4	0.97499
1463.6	0.97507
1463.8	0.97516
1464.0	0.97524
1464.2	0.97533
1464.4	0.97541
1464.6	0.9755
1464.8	0.97558
1465.0	0.97566
1465.2	0.97556
1465.4	0.97546
1465.6	0.97536
1465.8	0.97527
1466.0	0.97517
1466.2	0.97507
1466.4	0.97497
1466.6	0.97487
1466.8	0.97477
1467.0	0.97467
1467.2	0.97457
1467.4	0.97447
1467.6	0.97437
1467.8	0.97427
1468.0	0.97417
1468.2	0.97407
1468.4	0.97397
1468.6	0.97387
1468.8	0.97377
1469.0	0.97367
1469.2	0.97358
1469.4	0.97348
1469.6	0.97338
1469.8	0.97328
1470.0	0.97317
1470.2	0.97288
1470.4	0.97259
1470.6	0.9723
1470.8	0.972
1471.0	0.97171
1471.2	0.97142
1471.4	0.97112
1471.6	0.97083
1471.8	0.97054
1472.0	0.97025
1472.2	0.96996
1472.4	0.96966
1472.6	0.96937
1472.8	0.96908
1473.0	0.96879
1473.2	0.9685
1473.4	0.9682
1473.6	0.96791
1473.8	0.96762
1474.0	0.96733
1474.2	0.96704
1474.4	0.96675
1474.6	0.96646
1474.8	0.96616
1475.0	0.96589
1475.2	0.96616
1475.4	0.96644
1475.6	0.96671
1475.8	0.96698
1476.0	0.96725
1476.2	0.96753
1476.4	0.9678
1476.6	0.96807
1476.8	0.96835
1477.0	0.96862
1477.2	0.96889
1477.4	0.96917
1477.6	0.96944
1477.8	0.96971
1478.0	0.96999
1478.2	0.97026
1478.4	0.97053
1478.6	0.97081
1478.8	0.97108
1479.0	0.97135
1479.2	0.97163
1479.4	0.9719
1479.6	0.97218
1479.8	0.97245
1480.0	0.97272
1480.2	0.97283
1480.4	0.97294
1480.6	0.97306
1480.8	0.97317
1481.0	0.97328
1481.2	0.97339
1481.4	0.97351
1481.6	0.97362
1481.8	0.97373
1482.0	0.97384
1482.2	0.97396
1482.4	0.97407
1482.6	0.97418
1482.8	0.9743
1483.0	0.97441
1483.2	0.97452
1483.4	0.97463
1483.6	0.97475
1483.8	0.97486
1484.0	0.97497
1484.2	0.97509
1484.4	0.9752
1484.6	0.97531
1484.8	0.97543
1485.0	0.97553
1485.2	0.97522
1485.4	0.97491
1485.6	0.97459
1485.8	0.97428
1486.0	0.97397
1486.2	0.97366
1486.4	0.97334
1486.6	0.97303
1486.8	0.97272
1487.0	0.97241
1487.2	0.97209
1487.4	0.97178
1487.6	0.97147
1487.8	0.97116
1488.0	0.97084
1488.2	0.97053
1488.4	0.97022
1488.6	0.96991
1488.8	0.9696
1489.0	0.96929
1489.2	0.96898
1489.4	0.96866
1489.6	0.96835
1489.8	0.96804
1490.0	0.96774
1490.2	0.96755
1490.4	0.96737
1490.6	0.96719
1490.8	0.96701
1491.0	0.96683
1491.2	0.96664
1491.4	0.96646
1491.6	0.96628
1491.8	0.9661
1492.0	0.96592
1492.2	0.96574
1492.4	0.96556
1492.6	0.96537
1492.8	0.96519
1493.0	0.96501
1493.2	0.96483
1493.4	0.96465
1493.6	0.96447
1493.8	0.96429
1494.0	0.9641
1494.2	0.96392
1494.4	0.96374
1494.6	0.96356
1494.8	0.96338
1495.0	0.96322
1495.2	0.96336
1495.4	0.9635
1495.6	0.96364
1495.8	0.96378
1496.0	0.96392
1496.2	0.96406
1496.4	0.9642
1496.6	0.96434
1496.8	0.96448
1497.0	0.96462
1497.2	0.96476
1497.4	0.9649
1497.6	0.96504
1497.8	0.96518
1498.0	0.96532
1498.2	0.96546
1498.4	0.9656
1498.6	0.96574
1498.8	0.96588
1499.0	0.96602
1499.2	0.96616
1499.4	0.9663
1499.6	0.96644
1499.8	0.96659
1500.0	0.96673
1500.2	0.96705
1500.4	0.96737
1500.6	0.96769
1500.8	0.96801
1501.0	0.96833
1501.2	0.96866
1501.4	0.96898
1501.6	0.9693
1501.8	0.96962
1502.0	0.96994
1502.2	0.97026
1502.4	0.97058
1502.6	0.97091
1502.8	0.97123
1503.0	0.97155
1503.2	0.97187
1503.4	0.97219
1503.6	0.97252
1503.8	0.97284
1504.0	0.97316
1504.2	0.97348
1504.4	0.97381
1504.6	0.97413
1504.8	0.97445
1505.0	0.97476
1505.2	0.97457
1505.4	0.97438
1505.6	0.97418
1505.8	0.97399
1506.0	0.9738
1506.2	0.9736
1506.4	0.97341
1506.6	0.97322
1506.8	0.97302
1507.0	0.97283
1507.2	0.97264
1507.4	0.97244
1507.6	0.97225
1507.8	0.97206
1508.0	0.97186
1508.2	0.97167
1508.4	0.97148
1508.6	0.97128
1508.8	0.97109
1509.0	0.9709
1509.2	0.97071
1509.4	0.97051
1509.6	0.97032
1509.8	0.97013
1510.0	0.96993
1510.2	0.96964
1510.4	0.96934
1510.6	0.96904
1510.8	0.96875
1511.0	0.96845
1511.2	0.96816
1511.4	0.96786
1511.6	0.96756
1511.8	0.96727
1512.0	0.96697
1512.2	0.96668
1512.4	0.96638
1512.6	0.96608
1512.8	0.96579
1513.0	0.96549
1513.2	0.9652
1513.4	0.9649
1513.6	0.96461
1513.8	0.96431
1514.0	0.96402
1514.2	0.96372
1514.4	0.96343
1514.6	0.96313
1514.8	0.96284
1515.0	0.96256
1515.2	0.96267
1515.4	0.96277
1515.6	0.96288
1515.8	0.96298
1516.0	0.96309
1516.2	0.96319
1516.4	0.9633
1516.6	0.9634
1516.8	0.96351
1517.0	0.96361
1517.2	0.96372
1517.4	0.96382
1517.6	0.96393
1517.8	0.96403
1518.0	0.96414
1518.2	0.96424
1518.4	0.96435
1518.6	0.96446
1518.8	0.96456
1519.0	0.96467
1519.2	0.96477
1519.4	0.96488
1519.6	0.96498
1519.8	0.96509
1520.0	0.9652
1520.2	0.96551
1520.4	0.96581
1520.6	0.96612
1520.8	0.96642
1521.0	0.96673
1521.2	0.96703
1521.4	0.96734
1521.6	0.96765
1521.8	0.96795
1522.0	0.96826
1522.2	0.96856
1522.4	0.96887
1522.6	0.96918
1522.8	0.96948
1523.0	0.96979
1523.2	0.9701
1523.4	0.9704
1523.6	0.97071
1523.8	0.97102
1524.0	0.97133
1524.2	0.97163
1524.4	0.97194
1524.6	0.97225
1524.8	0.97256
1525.0	0.97286
1525.2	0.97287
1525.4	0.97289
1525.6	0.97291
1525.8	0.97292
1526.0	0.97294
1526.2	0.97295
1526.4	0.97297
1526.6	0.97299
1526.8	0.973
1527.0	0.97302
1527.2	0.97303
1527.4	0.97305
1527.6	0.97306
1527.8	0.97308
1528.0	0.9731
1528.2	0.97311
1528.4	0.97313
1528.6	0.97314
1528.8	0.97316
1529.0	0.97318
1529.2	0.97319
1529.4	0.97321
1529.6	0.97322
1529.8	0.97324
1530.0	0.97324
1530.2	0.9729
1530.4	0.97256
1530.6	0.97222
1530.8	0.97188
1531.0	0.97154
1531.2	0.9712
1531.4	0.97086
1531.6	0.97052
1531.8	0.97018
1532.0	0.96984
1532.2	0.9695
1532.4	0.96916
1532.6	0.96882
1532.8	0.96848
1533.0	0.96815
1533.2	0.96781
1533.4	0.96747
1533.6	0.96713
1533.8	0.96679
1534.0	0.96645
1534.2	0.96612
1534.4	0.96578
1534.6	0.96544
1534.8	0.9651
1535.0	0.96477
1535.2	0.96452
1535.4	0.96428
1535.6	0.96403
1535.8	0.96379
1536.0	0.96354
1536.2	0.9633
1536.4	0.96305
1536.6	0.96281
1536.8	0.96256
1537.0	0.96232
1537.2	0.96207
1537.4	0.96183
1537.6	0.96159
1537.8	0.96134
1538.0	0.9611
1538.2	0.96085
1538.4	0.96061
1538.6	0.96037
1538.8	0.96012
1539.0	0.95988
1539.2	0.95963
1539.4	0.95939
1539.6	0.95915
1539.8	0.9589
1540.0	0.95867
1540.2	0.9589
1540.4	0.95912
1540.6	0.95935
1540.8	0.95958
1541.0	0.95981
1541.2	0.96004
1541.4	0.96026
1541.6	0.96049
1541.8	0.96072
1542.0	0.96095
1542.2	0.96118
1542.4	0.96141
1542.6	0.96164
1542.8	0.96186
1543.0	0.96209
1543.2	0.96232
1543.4	0.96255
1543.6	0.96278
1543.8	0.96301
1544.0	0.96324
1544.2	0.96347
1544.4	0.96369
1544.6	0.96392
1544.8	0.96415
1545.0	0.96439
1545.2	0.96471
1545.4	0.96504
1545.6	0.96537
1545.8	0.9657
1546.0	0.96603
1546.2	0.96636
1546.4	0.96669
1546.6	0.96702
1546.8	0.96735
1547.0	0.96768
1547.2	0.96801
1547.4	0.96834
1547.6	0.96867
1547.8	0.969
1548.0	0.96933
1548.2	0.96966
1548.4	0.96999
1548.6	0.97032
1548.8	0.97065
1549.0	0.97098
1549.2	0.97131
1549.4	0.97164
1549.6	0.97197
1549.8	0.9723
1550.0	0.97263
1550.2	0.97245
1550.4	0.97228
1550.6	0.9721
1550.8	0.97193
1551.0	0.97176
1551.2	0.97158
1551.4	0.97141
1551.6	0.97123
1551.8	0.97106
1552.0	0.97089
1552.2	0.97071
1552.4	0.97054
1552.6	0.97036
1552.8	0.97019
1553.0	0.97002
1553.2	0.96984
1553.4	0.96967
1553.6	0.96949
1553.8	0.96932
1554.0	0.96915
1554.2	0.96897
1554.4	0.9688
1554.6	0.96862
1554.8	0.96845
1555.0	0.96826
1555.2	0.96772
1555.4	0.96718
1555.6	0.96665
1555.8	0.96611
1556.0	0.96557
1556.2	0.96504
1556.4	0.9645
1556.6	0.96396
1556.8	0.96343
1557.0	0.96289
1557.2	0.96236
1557.4	0.96182
1557.6	0.96129
1557.8	0.96075
1558.0	0.96022
1558.2	0.95968
1558.4	0.95915
1558.6	0.95862
1558.8	0.95808
1559.0	0.95755
1559.2	0.95702
1559.4	0.95649
1559.6	0.95595
1559.8	0.95542
1560.0	0.95491
1560.2	0.95501
1560.4	0.95511
1560.6	0.95522
1560.8	0.95532
1561.0	0.95542
1561.2	0.95552
1561.4	0.95562
1561.6	0.95572
1561.8	0.95582
1562.0	0.95593
1562.2	0.95603
1562.4	0.95613
1562.6	0.95623
1562.8	0.95633
1563.0	0.95643
1563.2	0.95654
1563.4	0.95664
1563.6	0.95674
1563.8	0.95684
1564.0	0.95694
1564.2	0.95704
1564.4	0.95715
1564.6	0.95725
1564.8	0.95735
1565.0	0.95745
1565.2	0.95762
1565.4	0.9578
1565.6	0.95797
1565.8	0.95814
1566.0	0.95831
1566.2	0.95849
1566.4	0.95866
1566.6	0.95883
1566.8	0.95901
1567.0	0.95918
1567.2	0.95935
1567.4	0.95952
1567.6	0.9597
1567.8	0.95987
1568.0	0.96004
1568.2	0.96022
1568.4	0.96039
1568.6	0.96056
1568.8	0.96073
1569.0	0.96091
1569.2	0.96108
1569.4	0.96125
1569.6	0.96143
1569.8	0.9616
1570.0	0.96177
1570.2	0.96204
1570.4	0.9623
1570.6	0.96256
1570.8	0.96283
1571.0	0.96309
1571.2	0.96335
1571.4	0.96361
1571.6	0.96388
1571.8	0.96414
1572.0	0.9644
1572.2	0.96467
1572.4	0.96493
1572.6	0.96519
1572.8	0.96546
1573.0	0.96572
1573.2	0.96598
1573.4	0.96625
1573.6	0.96651
1573.8	0.96678
1574.0	0.96704
1574.2	0.9673
1574.4	0.96757
1574.6	0.96783
1574.8	0.9681
1575.0	0.96835
1575.2	0.96799
1575.4	0.96762
1575.6	0.96726
1575.8	0.96689
1576.0	0.96653
1576.2	0.96616
1576.4	0.96579
1576.6	0.96543
1576.8	0.96506
1577.0	0.9647
1577.2	0.96434
1577.4	0.96397
1577.6	0.96361
1577.8	0.96324
1578.0	0.96288
1578.2	0.96251
1578.4	0.96215
1578.6	0.96179
1578.8	0.96142
1579.0	0.96106
1579.2	0.9607
1579.4	0.96033
1579.6	0.95997
1579.8	0.95961
1580.0	0.95924
1580.2	0.9588
1580.4	0.95835
1580.6	0.9579
1580.8	0.95746
1581.0	0.95701
1581.2	0.95657
1581.4	0.95612
1581.6	0.95568
1581.8	0.95523
1582.0	0.95479
1582.2	0.95434
1582.4	0.9539
1582.6	0.95345
1582.8	0.95301
1583.0	0.95257
1583.2	0.95212
1583.4	0.95168
1583.6	0.95124
1583.8	0.95079
1584.0	0.95035
1584.2	0.94991
1584.4	0.94946
1584.6	0.94902
1584.8	0.94858
1585.0	0.94815
1585.2	0.94831
1585.4	0.94848
1585.6	0.94864
1585.8	0.9488
1586.0	0.94897
1586.2	0.94913
1586.4	0.94929
1586.6	0.94945
1586.8	0.94962
1587.0	0.94978
1587.2	0.94994
1587.4	0.95011
1587.6	0.95027
1587.8	0.95043
1588.0	0.9506
1588.2	0.95076
1588.4	0.95092
1588.6	0.95109
1588.8	0.95125
1589.0	0.95141
1589.2	0.95158
1589.4	0.95174
1589.6	0.9519
1589.8	0.95207
1590.0	0.95224
1590.2	0.95265
1590.4	0.95305
1590.6	0.95346
1590.8	0.95387
1591.0	0.95427
1591.2	0.95468
1591.4	0.95509
1591.6	0.9555
1591.8	0.9559
1592.0	0.95631
1592.2	0.95672
1592.4	0.95713
1592.6	0.95754
1592.8	0.95795
1593.0	0.95836
1593.2	0.95876
1593.4	0.95917
1593.6	0.95958
1593.8	0.95999
1594.0	0.9604
1594.2	0.96081
1594.4	0.96122
1594.6	0.96163
1594.8	0.96204
1595.0	0.96245
1595.2	0.96234
1595.4	0.96223
1595.6	0.96213
1595.8	0.96202
1596.0	0.96191
1596.2	0.9618
1596.4	0.96169
1596.6	0.96158
1596.8	0.96148
1597.0	0.96137
1597.2	0.96126
1597.4	0.96115
1597.6	0.96104
1597.8	0.96093
1598.0	0.96083
1598.2	0.96072
1598.4	0.96061
1598.6	0.9605
1598.8	0.96039
1599.0	0.96029
1599.2	0.96018
1599.4	0.96007
1599.6	0.95996
1599.8	0.95985
1600.0	0.95974
1600.2	0.95939
1600.4	0.95903
1600.6	0.95868
1600.8	0.95833
1601.0	0.95798
1601.2	0.95763
1601.4	0.95728
1601.6	0.95693
1601.8	0.95658
1602.0	0.95623
1602.2	0.95588
1602.4	0.95553
1602.6	0.95518
1602.8	0.95483
1603.0	0.95448
1603.2	0.95413
1603.4	0.95378
1603.6	0.95343
1603.8	0.95308
1604.0	0.95273
1604.2	0.95239
1604.4	0.95204
1604.6	0.95169
1604.8	0.95134
1605.0	0.95099
